Wavelength (nm),Intensity (a.u.)
450,425.258
450.5,404.761094
451,383.721762
451.5,361.730688
452,338.380783
452.5,314.117933
453,289.127763
453.5,264.034645
454,239.328198
454.5,215.484425
455,192.751055
455.5,171.492169
456,151.850158
456.5,133.627037
457,117.013503
457.5,102.028754
458,88.583244
458.5,76.691735
459,66.028501
459.5,56.414011
460,48.02677
460.5,40.844013
461,34.685876
461.5,29.505666
462,25.354989
462.5,22.057202
463,19.601753
463.5,17.800715
464,16.552222
464.5,15.758086
465,15.400229
465.5,15.422505
466,15.760139
466.5,16.38531
467,17.251045
467.5,18.308203
468,19.541576
468.5,20.911181
469,22.407936
469.5,24.0214
470,25.758034
470.5,27.643378
471,29.68643
471.5,31.883587
472,34.248467
472.5,36.78654
473,39.496647
473.5,42.359831
474,45.388672
474.5,48.592819
475,52.060384
475.5,55.728301
476,59.646445
476.5,63.813788
477,68.246655
477.5,72.987442
478,77.997495
478.5,83.249932
479,88.71294
479.5,94.436391
480,100.29262
480.5,106.35766
481,112.62606
481.5,119.106495
482,125.920678
482.5,133.195586
483,140.789629
483.5,148.878196
484,157.498945
484.5,166.470289
485,175.84028
485.5,185.530632
486,195.411148
486.5,205.459954
487,215.75409
487.5,226.061971
488,236.476678
488.5,246.984386
489,257.545426
489.5,268.236991
490,279.052816
490.5,290.01632
491,301.112889
491.5,312.425362
492,323.933906
492.5,335.667151
493,347.563388
493.5,359.704058
494,372.02313
494.5,384.512181
495,397.166351
495.5,409.92304
496,422.681066
496.5,435.528065
497,448.471486
497.5,461.339232
498,474.320559
498.5,487.166655
499,499.915444
499.5,512.495753
500,524.793621
500.5,536.573696
501,548.081686
501.5,559.305424
502,570.315476
502.5,581.417928
503,592.423237
503.5,603.447369
504,614.558945
504.5,625.74099
505,636.733434
505.5,647.599331
506,658.177352
506.5,668.528115
507,678.777253
507.5,688.817524
508,698.499099
508.5,707.677827
509,716.515364
509.5,724.717859
510,732.47313
510.5,739.768492
511,746.521535
511.5,752.928985
512,759.25127
512.5,765.545785
513,771.438547
513.5,777.197742
514,782.680964
514.5,788.005292
515,793.078228
515.5,797.711991
516,802.053288
516.5,806.142799
517,810.268591
517.5,814.022385
518,817.405088
518.5,820.376386
519,823.086256
519.5,825.481766
520,827.527399
520.5,829.331518
521,830.792894
521.5,832.04446
522,832.90539
522.5,833.19211
523,833.086139
523.5,832.483941
524,831.409172
524.5,829.86308
525,828.073257
525.5,826.159717
526,824.121364
526.5,822.017805
527,819.726193
527.5,817.589173
528,815.079254
528.5,812.044385
529,808.368093
529.5,804.271307
530,799.834637
530.5,795.187192
531,790.21879
531.5,785.076607
532,780.286579
532.5,775.693437
533,771.152627
533.5,766.227516
534,761.076448
534.5,755.674229
535,750.177579
535.5,744.376112
536,738.407411
536.5,732.519776
537,726.750961
537.5,721.080555
538,715.046619
538.5,708.749785
539,702.035854
539.5,695.067345
540,687.510266
540.5,679.878031
541,672.153036
541.5,664.247313
542,656.514975
542.5,648.648782
543,640.697951
543.5,632.862082
544,625.16487
544.5,617.203554
545,609.247355
545.5,601.403994
546,593.67256
546.5,586.192905
547,578.657653
547.5,571.153815
548,563.767136
548.5,556.613101
549,549.590278
549.5,542.497206
550,535.340202
550.5,528.253947
551,521.259304
551.5,514.148889
552,506.93313
552.5,499.504176
553,491.946272
553.5,484.748705
554,477.680733
554.5,470.654756
555,463.801265
555.5,457.151996
556,450.507733
556.5,444.060659
557,437.625069
557.5,431.006489
558,424.608301
558.5,418.423718
559,412.35996
559.5,406.41583
560,400.749181
560.5,395.011242
561,389.40309
561.5,383.839117
562,378.249429
562.5,372.749084
563,367.292087
563.5,361.916371
564,356.596181
564.5,351.559892
565,346.361951
565.5,341.209805
566,336.045285
566.5,330.927821
567,325.928677
567.5,320.965353
568,316.070445
568.5,311.285219
569,306.684535
569.5,301.9281
570,297.134064
570.5,292.325204
571,287.531838
571.5,282.836679
572,278.17911
572.5,273.628136
573,269.291417
573.5,265.180906
574,261.127935
574.5,257.06975
575,253.091368
575.5,249.145279
576,245.226694
576.5,241.304685
577,237.376818
577.5,233.462539
578,229.572679
578.5,225.706473
579,221.879639
579.5,218.063088
580,214.272642
580.5,210.564429
581,206.973961
581.5,203.517782
582,200.094966
582.5,196.734121
583,193.390915
583.5,190.118493
584,186.838902
584.5,183.509908
585,180.179515
585.5,176.876989
586,173.674459
586.5,170.510177
587,167.393503
587.5,164.349199
588,161.436875
588.5,158.595354
589,155.716393
589.5,152.843682
590,149.963942
590.5,147.100919
591,144.232059
591.5,141.360754
592,138.535465
592.5,135.765824
593,133.062978
593.5,130.409169
594,127.78004
594.5,125.191501
595,122.65248
595.5,120.234188
596,117.869578
596.5,115.561103
597,113.2937
597.5,111.065836
598,108.953002
598.5,106.81996
599,104.704626
599.5,102.554157
600,100.424675
600.5,98.342551
601,96.301898
601.5,94.289544
602,92.26685
602.5,90.381513
603,88.568467
603.5,86.763152
604,84.992527
604.5,83.254031
605,81.567528
605.5,79.861384
606,78.206832
606.5,76.527529
607,74.890127
607.5,73.349859
608,71.821619
608.5,70.328246
609,68.861051
609.5,67.438239
610,65.999192
610.5,64.58802
611,63.177466
611.5,61.734853
612,60.351703
612.5,58.969635
613,57.602067
613.5,56.295075
614,55.031082
614.5,53.772479
615,52.548194
615.5,51.338854
616,50.102634
616.5,48.870957
617,47.692195
617.5,46.525726
618,45.399074
618.5,44.313038
619,43.252172
619.5,42.241241
620,41.245906
620.5,40.227452
621,39.210637
621.5,38.228051
622,37.246421
622.5,36.249017
623,35.291018
623.5,34.35028
624,33.462282
624.5,32.624431
625,31.803835
625.5,31.016734
626,30.304548
626.5,29.644366
627,28.976312
627.5,28.325598
628,27.691255
628.5,27.036297
629,26.364325
629.5,25.677374
630,24.980308
630.5,24.32008
631,23.705347
631.5,23.092326
632,22.494894
632.5,21.95127
633,21.413298
633.5,20.872976
634,20.334267
634.5,19.797547
635,19.281586
635.5,18.801422
636,18.324427
636.5,17.835966
637,17.364459
637.5,16.907535
638,16.4685
638.5,16.041328
639,15.614192
639.5,15.200602
640,14.822696
640.5,14.472412
641,14.136209
641.5,13.794044
642,13.45058
642.5,13.12298
643,12.823062
643.5,12.52828
644,12.230577
644.5,11.942249
645,11.665053
645.5,11.395007
646,11.123797
646.5,10.842321
647,10.548302
647.5,10.259441
648,9.94366
648.5,9.590316
649,9.189336
649.5,8.739677
650,8.244202
650.5,7.74
