Wavenumber (cm-1),% Transmittance
3999.04557,0.80326
3998.5634,0.80343
3998.08124,0.80353
3997.59908,0.80353
3997.11692,0.80352
3996.63476,0.8034
3996.1526,0.80279
3995.67044,0.80186
3995.18828,0.80161
3994.70611,0.80224
3994.22395,0.80291
3993.74179,0.80317
3993.25963,0.80324
3992.77747,0.80331
3992.29531,0.80327
3991.81315,0.80275
3991.33098,0.80195
3990.84882,0.80166
3990.36666,0.80202
3989.8845,0.80264
3989.40234,0.80324
3988.92018,0.8037
3988.43802,0.80396
3987.95586,0.80406
3987.47369,0.80401
3986.99153,0.8039
3986.50937,0.80378
3986.02721,0.80371
3985.54505,0.80372
3985.06289,0.80386
3984.58073,0.80408
3984.09857,0.80406
3983.6164,0.80357
3983.13424,0.80296
3982.65208,0.80274
3982.16992,0.80294
3981.68776,0.8032
3981.2056,0.80336
3980.72344,0.80349
3980.24128,0.80363
3979.75911,0.80378
3979.27695,0.80391
3978.79479,0.80398
3978.31263,0.80406
3977.83047,0.80408
3977.34831,0.80367
3976.86615,0.80284
3976.38399,0.80233
3975.90182,0.80234
3975.41966,0.80245
3974.9375,0.80246
3974.45534,0.80245
3973.97318,0.80257
3973.49102,0.8025
3973.00886,0.80212
3972.5267,0.80215
3972.04453,0.80293
3971.56237,0.80382
3971.08021,0.80427
3970.59805,0.80406
3970.11589,0.80311
3969.63373,0.80221
3969.15157,0.80237
3968.66941,0.80326
3968.18724,0.80398
3967.70508,0.80433
3967.22292,0.80448
3966.74076,0.80457
3966.2586,0.80463
3965.77644,0.80459
3965.29428,0.80445
3964.81212,0.80431
3964.32995,0.80434
3963.84779,0.80447
3963.36563,0.80387
3962.88347,0.8018
3962.40131,0.79975
3961.91915,0.79997
3961.43699,0.80181
3960.95482,0.80323
3960.47266,0.80366
3959.9905,0.80376
3959.50834,0.80384
3959.02618,0.80377
3958.54402,0.80361
3958.06186,0.80332
3957.5797,0.80278
3957.09753,0.80269
3956.61537,0.8033
3956.13321,0.80393
3955.65105,0.80428
3955.16889,0.80456
3954.68673,0.80458
3954.20457,0.80383
3953.72241,0.80265
3953.24024,0.80233
3952.75808,0.80308
3952.27592,0.80394
3951.79376,0.80392
3951.3116,0.80161
3950.82944,0.79693
3950.34728,0.79401
3949.86512,0.79577
3949.38295,0.79849
3948.90079,0.79817
3948.41863,0.79568
3947.93647,0.79443
3947.45431,0.7965
3946.97215,0.80025
3946.48999,0.80305
3946.00783,0.80427
3945.52566,0.80405
3945.0435,0.80298
3944.56134,0.80191
3944.07918,0.7988
3943.59702,0.79139
3943.11486,0.78564
3942.6327,0.78853
3942.15054,0.79591
3941.66837,0.8012
3941.18621,0.8037
3940.70405,0.80481
3940.22189,0.80517
3939.73973,0.80494
3939.25757,0.80431
3938.77541,0.80386
3938.29325,0.80418
3937.81108,0.80499
3937.32892,0.80559
3936.84676,0.80578
3936.3646,0.80573
3935.88244,0.80547
3935.40028,0.80459
3934.91812,0.80294
3934.43596,0.80165
3933.95379,0.79985
3933.47163,0.79345
3932.98947,0.78456
3932.50731,0.78278
3932.02515,0.78915
3931.54299,0.79506
3931.06083,0.79714
3930.57866,0.79727
3930.0965,0.79664
3929.61434,0.79711
3929.13218,0.7997
3928.65002,0.80252
3928.16786,0.80431
3927.6857,0.80525
3927.20354,0.80549
3926.72137,0.80395
3926.23921,0.79815
3925.75705,0.79004
3925.27489,0.78664
3924.79273,0.78912
3924.31057,0.79282
3923.82841,0.79641
3923.34625,0.80029
3922.86408,0.80337
3922.38192,0.805
3921.89976,0.80502
3921.4176,0.80095
3920.93544,0.79174
3920.45328,0.78531
3919.97112,0.78889
3919.48896,0.79677
3919.00679,0.80079
3918.52463,0.79641
3918.04247,0.78456
3917.56031,0.77619
3917.07815,0.77872
3916.59599,0.7871
3916.11383,0.79563
3915.63167,0.80174
3915.1495,0.80476
3914.66734,0.80585
3914.18518,0.80621
3913.70302,0.80641
3913.22086,0.8066
3912.7387,0.80679
3912.25654,0.80698
3911.77438,0.80713
3911.29221,0.80717
3910.81005,0.80716
3910.32789,0.80716
3909.84573,0.8071
3909.36357,0.80697
3908.88141,0.80686
3908.39925,0.80679
3907.91709,0.80629
3907.43492,0.80314
3906.95276,0.79572
3906.4706,0.78855
3905.98844,0.7859
3905.50628,0.77878
3905.02412,0.75965
3904.54196,0.74665
3904.0598,0.75792
3903.57763,0.77474
3903.09547,0.77403
3902.61331,0.75761
3902.13115,0.74974
3901.64899,0.76398
3901.16683,0.78165
3900.68467,0.7829
3900.20251,0.76591
3899.72034,0.75125
3899.23818,0.75873
3898.75602,0.77655
3898.27386,0.78986
3897.7917,0.79806
3897.30954,0.80292
3896.82738,0.80533
3896.34521,0.80639
3895.86305,0.80653
3895.38089,0.80516
3894.89873,0.80252
3894.41657,0.80075
3893.93441,0.80081
3893.45225,0.80038
3892.97009,0.79548
3892.48792,0.78013
3892.00576,0.75743
3891.5236,0.75009
3891.04144,0.76663
3890.55928,0.78664
3890.07712,0.79828
3889.59496,0.80361
3889.1128,0.80577
3888.63063,0.80632
3888.14847,0.80589
3887.66631,0.80272
3887.18415,0.78962
3886.70199,0.76149
3886.21983,0.73663
3885.73767,0.7435
3885.25551,0.7696
3884.77334,0.78794
3884.29118,0.79367
3883.80902,0.79395
3883.32686,0.79592
3882.8447,0.79959
3882.36254,0.79927
3881.88038,0.79038
3881.39822,0.77198
3880.91605,0.75257
3880.43389,0.75073
3879.95173,0.7689
3879.46957,0.78854
3878.98741,0.79978
3878.50525,0.80484
3878.02309,0.80681
3877.54093,0.80733
3877.05876,0.80729
3876.5766,0.80696
3876.09444,0.80452
3875.61228,0.79433
3875.13012,0.7749
3874.64796,0.76021
3874.1658,0.76468
3873.68364,0.78074
3873.20147,0.79408
3872.71931,0.79943
3872.23715,0.79797
3871.75499,0.79076
3871.27283,0.77266
3870.79067,0.74341
3870.30851,0.72258
3869.82635,0.72677
3869.34418,0.74869
3868.86202,0.77419
3868.37986,0.79224
3867.8977,0.80105
3867.41554,0.80391
3866.93338,0.80177
3866.45122,0.79044
3865.96905,0.7668
3865.48689,0.74623
3865.00473,0.74959
3864.52257,0.76818
3864.04041,0.78405
3863.55825,0.79225
3863.07609,0.79044
3862.59393,0.77877
3862.11176,0.77116
3861.6296,0.77913
3861.14744,0.79284
3860.66528,0.80165
3860.18312,0.80563
3859.70096,0.80711
3859.2188,0.80707
3858.73664,0.80424
3858.25447,0.79599
3857.77231,0.78626
3857.29015,0.7846
3856.80799,0.79054
3856.32583,0.79332
3855.84367,0.78148
3855.36151,0.74238
3854.87935,0.67517
3854.39718,0.63651
3853.91502,0.67112
3853.43286,0.71094
3852.9507,0.71645
3852.46854,0.71153
3851.98638,0.73222
3851.50422,0.76506
3851.02206,0.78593
3850.53989,0.79351
3850.05773,0.79552
3849.57557,0.79828
3849.09341,0.80247
3848.61125,0.80589
3848.12909,0.80779
3847.64693,0.80862
3847.16477,0.80882
3846.6826,0.80875
3846.20044,0.80831
3845.71828,0.80682
3845.23612,0.80155
3844.75396,0.78835
3844.2718,0.77334
3843.78964,0.77254
3843.30748,0.78522
3842.82531,0.79576
3842.34315,0.79438
3841.86099,0.78123
3841.37883,0.76787
3840.89667,0.76435
3840.41451,0.76848
3839.93235,0.77613
3839.45019,0.77739
3838.96802,0.75797
3838.48586,0.72429
3838.0037,0.71696
3837.52154,0.74614
3837.03938,0.77581
3836.55722,0.78835
3836.07506,0.78076
3835.59289,0.76285
3835.11073,0.75948
3834.62857,0.77567
3834.14641,0.7926
3833.66425,0.80099
3833.18209,0.79913
3832.69993,0.78373
3832.21777,0.76474
3831.7356,0.76435
3831.25344,0.78117
3830.77128,0.79645
3830.28912,0.80439
3829.80696,0.80766
3829.3248,0.80799
3828.84264,0.80638
3828.36048,0.80293
3827.87831,0.79487
3827.39615,0.784
3826.91399,0.78133
3826.43183,0.78919
3825.94967,0.7979
3825.46751,0.80261
3824.98535,0.80414
3824.50319,0.80404
3824.02102,0.80316
3823.53886,0.80007
3823.0567,0.78773
3822.57454,0.76073
3822.09238,0.73064
3821.61022,0.71435
3821.12806,0.71737
3820.6459,0.73895
3820.16373,0.76629
3819.68157,0.78566
3819.19941,0.79556
3818.71725,0.80034
3818.23509,0.80196
3817.75293,0.79604
3817.27077,0.77325
3816.78861,0.73534
3816.30644,0.71776
3815.82428,0.74193
3815.34212,0.77415
3814.85996,0.79402
3814.3778,0.80381
3813.89564,0.8084
3813.41348,0.81045
3812.93132,0.81135
3812.44915,0.81176
3811.96699,0.81197
3811.48483,0.81206
3811.00267,0.81204
3810.52051,0.81194
3810.03835,0.81166
3809.55619,0.81096
3809.07403,0.80879
3808.59186,0.80006
3808.1097,0.7756
3807.62754,0.74157
3807.14538,0.73269
3806.66322,0.75711
3806.18106,0.78359
3805.6989,0.79866
3805.21674,0.80559
3804.73457,0.80755
3804.25241,0.80401
3803.77025,0.79481
3803.28809,0.78435
3802.80593,0.76976
3802.32377,0.74018
3801.84161,0.71121
3801.35944,0.7202
3800.87728,0.75349
3800.39512,0.78055
3799.91296,0.7961
3799.4308,0.80354
3798.94864,0.80532
3798.46648,0.80342
3797.98432,0.79865
3797.50215,0.78708
3797.01999,0.77249
3796.53783,0.77175
3796.05567,0.78622
3795.57351,0.80038
3795.09135,0.80807
3794.60919,0.81163
3794.12703,0.81313
3793.64486,0.81367
3793.1627,0.8139
3792.68054,0.81411
3792.19838,0.81437
3791.71622,0.81469
3791.23406,0.81504
3790.7519,0.81508
3790.26974,0.81471
3789.78757,0.81435
3789.30541,0.81436
3788.82325,0.81453
3788.34109,0.81452
3787.85893,0.81416
3787.37677,0.8135
3786.89461,0.81255
3786.41245,0.81079
3785.93028,0.80698
3785.44812,0.80154
3784.96596,0.79908
3784.4838,0.80261
3784.00164,0.80834
3783.51948,0.81207
3783.03732,0.81344
3782.55516,0.81363
3782.07299,0.81359
3781.59083,0.81321
3781.10867,0.80932
3780.62651,0.79648
3780.14435,0.77929
3779.66219,0.77538
3779.18003,0.78747
3778.69787,0.80022
3778.2157,0.80737
3777.73354,0.81144
3777.25138,0.81389
3776.76922,0.81511
3776.28706,0.81568
3775.8049,0.81598
3775.32274,0.81601
3774.84058,0.81591
3774.35841,0.81583
3773.87625,0.81584
3773.39409,0.81571
3772.91193,0.81498
3772.42977,0.81351
3771.94761,0.81147
3771.46545,0.8055
3770.98328,0.78808
3770.50112,0.76498
3770.01896,0.76037
3769.5368,0.77778
3769.05464,0.79616
3768.57248,0.8065
3768.09032,0.81131
3767.60816,0.81212
3767.12599,0.80613
3766.64383,0.79116
3766.16167,0.77874
3765.67951,0.78297
3765.19735,0.79645
3764.71519,0.80633
3764.23303,0.81111
3763.75087,0.81323
3763.2687,0.81371
3762.78654,0.81359
3762.30438,0.81375
3761.82222,0.81347
3761.34006,0.80829
3760.8579,0.79248
3760.37574,0.77264
3759.89358,0.76712
3759.41141,0.77872
3758.92925,0.79362
3758.44709,0.80315
3757.96493,0.80345
3757.48277,0.79386
3757.00061,0.78507
3756.51845,0.78862
3756.03629,0.79884
3755.55412,0.80571
3755.07196,0.80729
3754.5898,0.80452
3754.10764,0.79767
3753.62548,0.77987
3753.14332,0.74256
3752.66116,0.70586
3752.179,0.71117
3751.69683,0.74234
3751.21467,0.76194
3750.73251,0.75444
3750.25035,0.71737
3749.76819,0.68454
3749.28603,0.70303
3748.80387,0.74253
3748.32171,0.76551
3747.83954,0.77371
3747.35738,0.77715
3746.87522,0.77659
3746.39306,0.7645
3745.9109,0.73042
3745.42874,0.67145
3744.94658,0.61881
3744.46442,0.62668
3743.98225,0.67628
3743.50009,0.71963
3743.01793,0.74129
3742.53577,0.74516
3742.05361,0.73785
3741.57145,0.72821
3741.08929,0.72391
3740.60712,0.72381
3740.12496,0.72173
3739.6428,0.71388
3739.16064,0.70048
3738.67848,0.68921
3738.19632,0.68235
3737.71416,0.66464
3737.232,0.63844
3736.74983,0.62354
3736.26767,0.61633
3735.78551,0.60636
3735.30335,0.60007
3734.82119,0.61045
3734.33903,0.62614
3733.85687,0.63471
3733.37471,0.63606
3732.89254,0.6242
3732.41038,0.61334
3731.92822,0.6138
3731.44606,0.61862
3730.9639,0.62812
3730.48174,0.62981
3729.99958,0.63022
3729.51742,0.63556
3729.03525,0.6315
3728.55309,0.63022
3728.07093,0.62828
3727.58877,0.6113
3727.10661,0.60285
3726.62445,0.60594
3726.14229,0.61081
3725.66013,0.62304
3725.17796,0.62733
3724.6958,0.63143
3724.21364,0.64745
3723.73148,0.64644
3723.24932,0.63301
3722.76716,0.63172
3722.285,0.6338
3721.80284,0.64782
3721.32067,0.67462
3720.83851,0.68394
3720.35635,0.68406
3719.87419,0.692
3719.39203,0.69256
3718.90987,0.69671
3718.42771,0.71856
3717.94555,0.73424
3717.46338,0.73992
3716.98122,0.75326
3716.49906,0.76787
3716.0169,0.77317
3715.53474,0.77573
3715.05258,0.78084
3714.57042,0.78176
3714.08826,0.76931
3713.60609,0.74445
3713.12393,0.70886
3712.64177,0.66673
3712.15961,0.65207
3711.67745,0.67757
3711.19529,0.69924
3710.71313,0.68707
3710.23097,0.66463
3709.7488,0.65954
3709.26664,0.65901
3708.78448,0.66274
3708.30232,0.68567
3707.82016,0.69752
3707.338,0.68022
3706.85584,0.6767
3706.37367,0.69306
3705.89151,0.6843
3705.40935,0.66605
3704.92719,0.6804
3704.44503,0.69358
3703.96287,0.67326
3703.48071,0.66331
3702.99855,0.67678
3702.51638,0.66361
3702.03422,0.63634
3701.55206,0.65546
3701.0699,0.68948
3700.58774,0.68296
3700.10558,0.66959
3699.62342,0.69085
3699.14126,0.70659
3698.65909,0.68771
3698.17693,0.68143
3697.69477,0.70574
3697.21261,0.70989
3696.73045,0.68745
3696.24829,0.6913
3695.76613,0.71848
3695.28397,0.71711
3694.8018,0.69631
3694.31964,0.70476
3693.83748,0.72836
3693.35532,0.72189
3692.87316,0.69983
3692.391,0.69563
3691.90884,0.69353
3691.42668,0.67593
3690.94451,0.67404
3690.46235,0.70518
3689.98019,0.7303
3689.49803,0.71175
3689.01587,0.6731
3688.53371,0.67895
3688.05155,0.71593
3687.56939,0.72946
3687.08722,0.73176
3686.60506,0.75085
3686.1229,0.77041
3685.64074,0.76573
3685.15858,0.75396
3684.67642,0.76259
3684.19426,0.77928
3683.7121,0.77816
3683.22993,0.76855
3682.74777,0.77404
3682.26561,0.78804
3681.78345,0.78808
3681.30129,0.77698
3680.81913,0.77315
3680.33697,0.7744
3679.85481,0.7691
3679.37264,0.76436
3678.89048,0.77172
3678.40832,0.78419
3677.92616,0.78635
3677.444,0.76985
3676.96184,0.73664
3676.47968,0.70267
3675.99751,0.68595
3675.51535,0.68413
3675.03319,0.70146
3674.55103,0.74
3674.06887,0.7767
3673.58671,0.79498
3673.10455,0.79869
3672.62239,0.79785
3672.14022,0.78928
3671.65806,0.76106
3671.1759,0.72745
3670.69374,0.72863
3670.21158,0.75307
3669.72942,0.76179
3669.24726,0.7565
3668.7651,0.76314
3668.28293,0.78397
3667.80077,0.80234
3667.31861,0.81146
3666.83645,0.81366
3666.35429,0.81381
3665.87213,0.8153
3665.38997,0.81728
3664.90781,0.81767
3664.42564,0.81685
3663.94348,0.81674
3663.46132,0.81778
3662.97916,0.8184
3662.497,0.81775
3662.01484,0.81696
3661.53268,0.81721
3661.05052,0.81754
3660.56835,0.81666
3660.08619,0.81556
3659.60403,0.81565
3659.12187,0.81652
3658.63971,0.81659
3658.15755,0.81374
3657.67539,0.80203
3657.19323,0.77645
3656.71106,0.75358
3656.2289,0.75957
3655.74674,0.78276
3655.26458,0.79996
3654.78242,0.80836
3654.30026,0.81176
3653.8181,0.81201
3653.33594,0.81028
3652.85377,0.80472
3652.37161,0.78915
3651.88945,0.76343
3651.40729,0.74255
3650.92513,0.73851
3650.44297,0.7367
3649.96081,0.7231
3649.47865,0.71944
3648.99648,0.7387
3648.51432,0.74935
3648.03216,0.73985
3647.55,0.73352
3647.06784,0.7456
3646.58568,0.76548
3646.10352,0.78106
3645.62136,0.78974
3645.13919,0.79373
3644.65703,0.79481
3644.17487,0.79326
3643.69271,0.78979
3643.21055,0.78494
3642.72839,0.78062
3642.24623,0.77855
3641.76406,0.77771
3641.2819,0.77689
3640.79974,0.77475
3640.31758,0.77147
3639.83542,0.76758
3639.35326,0.76259
3638.8711,0.75595
3638.38894,0.74988
3637.90677,0.74771
3637.42461,0.74594
3636.94245,0.74336
3636.46029,0.7401
3635.97813,0.73512
3635.49597,0.72999
3635.01381,0.71851
3634.53165,0.70284
3634.04948,0.69405
3633.56732,0.69501
3633.08516,0.70153
3632.603,0.7019
3632.12084,0.69826
3631.63868,0.69431
3631.15652,0.68021
3630.67436,0.65583
3630.19219,0.62269
3629.71003,0.59702
3629.22787,0.59094
3628.74571,0.59071
3628.26355,0.61202
3627.78139,0.6461
3627.29923,0.65753
3626.81707,0.65987
3626.3349,0.66594
3625.85274,0.66529
3625.37058,0.67011
3624.88842,0.67608
3624.40626,0.67166
3623.9241,0.67441
3623.44194,0.6778
3622.95978,0.67362
3622.47761,0.6789
3621.99545,0.68118
3621.51329,0.67456
3621.03113,0.6785
3620.54897,0.67841
3620.06681,0.66898
3619.58465,0.67778
3619.10249,0.68765
3618.62032,0.67932
3618.13816,0.67867
3617.656,0.6927
3617.17384,0.70583
3616.69168,0.72058
3616.20952,0.7323
3615.72736,0.73103
3615.2452,0.72891
3614.76303,0.73707
3614.28087,0.7471
3613.79871,0.74782
3613.31655,0.73889
3612.83439,0.73363
3612.35223,0.73893
3611.87007,0.74585
3611.3879,0.75103
3610.90574,0.74835
3610.42358,0.72561
3609.94142,0.69528
3609.45926,0.68534
3608.9771,0.6897
3608.49494,0.69208
3608.01278,0.69483
3607.53061,0.68926
3607.04845,0.67789
3606.56629,0.68575
3606.08413,0.70197
3605.60197,0.69663
3605.11981,0.68672
3604.63765,0.69584
3604.15549,0.69751
3603.67332,0.68095
3603.19116,0.68007
3602.709,0.69118
3602.22684,0.67968
3601.74468,0.66235
3601.26252,0.67025
3600.78036,0.67742
3600.2982,0.66529
3599.81603,0.66689
3599.33387,0.68291
3598.85171,0.67668
3598.36955,0.66224
3597.88739,0.67437
3597.40523,0.68872
3596.92307,0.67541
3596.44091,0.66106
3595.95874,0.66837
3595.47658,0.67189
3594.99442,0.66222
3594.51226,0.66702
3594.0301,0.68228
3593.54794,0.67801
3593.06578,0.66719
3592.58362,0.68059
3592.10145,0.7002
3591.61929,0.6958
3591.13713,0.68521
3590.65497,0.6953
3590.17281,0.70448
3589.69065,0.68476
3589.20849,0.66128
3588.72633,0.67016
3588.24416,0.68676
3587.762,0.67827
3587.27984,0.66516
3586.79768,0.67649
3586.31552,0.69585
3585.83336,0.70094
3585.3512,0.70614
3584.86904,0.72086
3584.38687,0.7265
3583.90471,0.71811
3583.42255,0.71679
3582.94039,0.72901
3582.45823,0.73602
3581.97607,0.73057
3581.49391,0.72771
3581.01174,0.73346
3580.52958,0.73557
3580.04742,0.73011
3579.56526,0.72932
3579.0831,0.73745
3578.60094,0.74238
3578.11878,0.73718
3577.63662,0.73198
3577.15445,0.73563
3576.67229,0.74097
3576.19013,0.7393
3575.70797,0.73516
3575.22581,0.73617
3574.74365,0.73969
3574.26149,0.73933
3573.77933,0.737
3573.29716,0.73854
3572.815,0.74259
3572.33284,0.74321
3571.85068,0.73992
3571.36852,0.73769
3570.88636,0.73901
3570.4042,0.74057
3569.92204,0.73788
3569.43987,0.7289
3568.95771,0.71466
3568.47555,0.70406
3567.99339,0.70366
3567.51123,0.70474
3567.02907,0.70255
3566.54691,0.70374
3566.06475,0.71095
3565.58258,0.72064
3565.10042,0.72856
3564.61826,0.73209
3564.1361,0.73252
3563.65394,0.73287
3563.17178,0.73395
3562.68962,0.73564
3562.20746,0.73801
3561.72529,0.73907
3561.24313,0.73698
3560.76097,0.73396
3560.27881,0.73398
3559.79665,0.73646
3559.31449,0.73817
3558.83233,0.73904
3558.35017,0.73973
3557.868,0.73931
3557.38584,0.73834
3556.90368,0.73853
3556.42152,0.73954
3555.93936,0.73989
3555.4572,0.73947
3554.97504,0.7385
3554.49288,0.73675
3554.01071,0.73503
3553.52855,0.73336
3553.04639,0.72999
3552.56423,0.72684
3552.08207,0.72807
3551.59991,0.73223
3551.11775,0.73544
3550.63559,0.73687
3550.15342,0.73721
3549.67126,0.73668
3549.1891,0.73546
3548.70694,0.73401
3548.22478,0.73091
3547.74262,0.72528
3547.26046,0.72231
3546.77829,0.72499
3546.29613,0.72689
3545.81397,0.72491
3545.33181,0.7242
3544.84965,0.72655
3544.36749,0.72871
3543.88533,0.72977
3543.40317,0.73109
3542.921,0.73283
3542.43884,0.73396
3541.95668,0.73418
3541.47452,0.734
3540.99236,0.73373
3540.5102,0.73343
3540.02804,0.73308
3539.54588,0.73268
3539.06371,0.73254
3538.58155,0.73253
3538.09939,0.73204
3537.61723,0.73053
3537.13507,0.72811
3536.65291,0.72653
3536.17075,0.72724
3535.68859,0.7289
3535.20642,0.72993
3534.72426,0.73034
3534.2421,0.73029
3533.75994,0.72989
3533.27778,0.72956
3532.79562,0.72928
3532.31346,0.72847
3531.8313,0.72705
3531.34913,0.72587
3530.86697,0.72557
3530.38481,0.72503
3529.90265,0.72276
3529.42049,0.7203
3528.93833,0.71985
3528.45617,0.72004
3527.97401,0.71896
3527.49184,0.71794
3527.00968,0.71869
3526.52752,0.71978
3526.04536,0.72002
3525.5632,0.72025
3525.08104,0.72032
3524.59888,0.71972
3524.11672,0.71852
3523.63455,0.71659
3523.15239,0.7155
3522.67023,0.71685
3522.18807,0.71916
3521.70591,0.72071
3521.22375,0.72141
3520.74159,0.72138
3520.25943,0.72064
3519.77726,0.71959
3519.2951,0.71892
3518.81294,0.71887
3518.33078,0.71903
3517.84862,0.71914
3517.36646,0.71912
3516.8843,0.71892
3516.40213,0.71874
3515.91997,0.71863
3515.43781,0.7184
3514.95565,0.71823
3514.47349,0.71833
3513.99133,0.71819
3513.50917,0.71749
3513.02701,0.71666
3512.54484,0.71576
3512.06268,0.71469
3511.58052,0.71399
3511.09836,0.71355
3510.6162,0.71174
3510.13404,0.70847
3509.65188,0.70679
3509.16972,0.70823
3508.68755,0.71063
3508.20539,0.71214
3507.72323,0.71278
3507.24107,0.71285
3506.75891,0.71246
3506.27675,0.71179
3505.79459,0.71078
3505.31243,0.70925
3504.83026,0.70765
3504.3481,0.70588
3503.86594,0.70386
3503.38378,0.70328
3502.90162,0.70473
3502.41946,0.70632
3501.9373,0.70712
3501.45514,0.7077
3500.97297,0.70816
3500.49081,0.70825
3500.00865,0.70825
3499.52649,0.70841
3499.04433,0.70854
3498.56217,0.70852
3498.08001,0.7082
3497.59785,0.70701
3497.11568,0.70541
3496.63352,0.70469
3496.15136,0.70465
3495.6692,0.70454
3495.18704,0.70476
3494.70488,0.70531
3494.22272,0.70549
3493.74056,0.70528
3493.25839,0.70503
3492.77623,0.70481
3492.29407,0.70446
3491.81191,0.70394
3491.32975,0.70349
3490.84759,0.70328
3490.36543,0.70322
3489.88327,0.70301
3489.4011,0.70211
3488.91894,0.70023
3488.43678,0.69876
3487.95462,0.69908
3487.47246,0.70026
3486.9903,0.70088
3486.50814,0.70083
3486.02597,0.70048
3485.54381,0.70006
3485.06165,0.69965
3484.57949,0.69928
3484.09733,0.69894
3483.61517,0.69796
3483.13301,0.69571
3482.65085,0.69364
3482.16868,0.69366
3481.68652,0.69466
3481.20436,0.69515
3480.7222,0.69587
3480.24004,0.69703
3479.75788,0.69767
3479.27572,0.69756
3478.79356,0.69712
3478.31139,0.69661
3477.82923,0.69612
3477.34707,0.69569
3476.86491,0.69533
3476.38275,0.69486
3475.90059,0.69396
3475.41843,0.69299
3474.93627,0.69271
3474.4541,0.69297
3473.97194,0.69312
3473.48978,0.69306
3473.00762,0.69299
3472.52546,0.69291
3472.0433,0.69273
3471.56114,0.69244
3471.07898,0.69221
3470.59681,0.69241
3470.11465,0.69305
3469.63249,0.69353
3469.15033,0.69332
3468.66817,0.69256
3468.18601,0.69166
3467.70385,0.69088
3467.22169,0.69041
3466.73952,0.69022
3466.25736,0.68995
3465.7752,0.68954
3465.29304,0.68918
3464.81088,0.68892
3464.32872,0.68851
3463.84656,0.68759
3463.3644,0.68635
3462.88223,0.68564
3462.40007,0.68564
3461.91791,0.68576
3461.43575,0.68594
3460.95359,0.68639
3460.47143,0.68683
3459.98927,0.68681
3459.50711,0.68637
3459.02494,0.6859
3458.54278,0.68557
3458.06062,0.68523
3457.57846,0.68491
3457.0963,0.68465
3456.61414,0.68441
3456.13198,0.68416
3455.64982,0.6839
3455.16765,0.68366
3454.68549,0.6835
3454.20333,0.68333
3453.72117,0.68309
3453.23901,0.68285
3452.75685,0.68266
3452.27469,0.68247
3451.79252,0.68223
3451.31036,0.68195
3450.8282,0.68166
3450.34604,0.6814
3449.86388,0.68113
3449.38172,0.68068
3448.89956,0.67993
3448.4174,0.67815
3447.93523,0.67496
3447.45307,0.67274
3446.97091,0.67377
3446.48875,0.67618
3446.00659,0.67752
3445.52443,0.67794
3445.04227,0.67822
3444.56011,0.67839
3444.07794,0.6781
3443.59578,0.6771
3443.11362,0.67576
3442.63146,0.67522
3442.1493,0.67577
3441.66714,0.67648
3441.18498,0.67676
3440.70282,0.67679
3440.22065,0.67672
3439.73849,0.67663
3439.25633,0.67657
3438.77417,0.67667
3438.29201,0.677
3437.80985,0.67729
3437.32769,0.67716
3436.84553,0.67668
3436.36336,0.67637
3435.8812,0.67661
3435.39904,0.67704
3434.91688,0.677
3434.43472,0.67634
3433.95256,0.67544
3433.4704,0.67469
3432.98824,0.6742
3432.50607,0.67392
3432.02391,0.67363
3431.54175,0.6735
3431.05959,0.67387
3430.57743,0.67431
3430.09527,0.6742
3429.61311,0.67373
3429.13095,0.67329
3428.64878,0.67298
3428.16662,0.67273
3427.68446,0.67249
3427.2023,0.67224
3426.72014,0.67202
3426.23798,0.67185
3425.75582,0.67167
3425.27366,0.67146
3424.79149,0.67123
3424.30933,0.67097
3423.82717,0.6706
3423.34501,0.67009
3422.86285,0.66945
3422.38069,0.66888
3421.89853,0.66847
3421.41636,0.6678
3420.9342,0.66702
3420.45204,0.66705
3419.96988,0.66782
3419.48772,0.66848
3419.00556,0.66877
3418.5234,0.66889
3418.04124,0.66895
3417.55907,0.66895
3417.07691,0.6689
3416.59475,0.66884
3416.11259,0.66876
3415.63043,0.66871
3415.14827,0.66867
3414.66611,0.6686
3414.18395,0.66854
3413.70178,0.66869
3413.21962,0.66896
3412.73746,0.66896
3412.2553,0.66862
3411.77314,0.66816
3411.29098,0.66778
3410.80882,0.6676
3410.32666,0.66769
3409.84449,0.66797
3409.36233,0.66817
3408.88017,0.66801
3408.39801,0.66758
3407.91585,0.66717
3407.43369,0.66685
3406.95153,0.66665
3406.46937,0.66656
3405.9872,0.66652
3405.50504,0.66646
3405.02288,0.6663
3404.54072,0.66602
3404.05856,0.66577
3403.5764,0.66586
3403.09424,0.66631
3402.61208,0.66691
3402.12991,0.66749
3401.64775,0.66788
3401.16559,0.66807
3400.68343,0.66814
3400.20127,0.66802
3399.71911,0.66757
3399.23695,0.66687
3398.75479,0.66608
3398.27262,0.6651
3397.79046,0.66406
3397.3083,0.66368
3396.82614,0.66415
3396.34398,0.6648
3395.86182,0.66523
3395.37966,0.66537
3394.8975,0.66525
3394.41533,0.66497
3393.93317,0.6644
3393.45101,0.66366
3392.96885,0.66371
3392.48669,0.66484
3392.00453,0.666
3391.52237,0.66645
3391.0402,0.66627
3390.55804,0.66574
3390.07588,0.66519
3389.59372,0.66484
3389.11156,0.66466
3388.6294,0.66454
3388.14724,0.66446
3387.66508,0.66441
3387.18291,0.66427
3386.70075,0.6639
3386.21859,0.66348
3385.73643,0.6633
3385.25427,0.66328
3384.77211,0.6633
3384.28995,0.66349
3383.80779,0.66377
3383.32562,0.66399
3382.84346,0.66417
3382.3613,0.66431
3381.87914,0.66437
3381.39698,0.66443
3380.91482,0.66459
3380.43266,0.66474
3379.9505,0.66471
3379.46833,0.66453
3378.98617,0.66434
3378.50401,0.66429
3378.02185,0.66449
3377.53969,0.6648
3377.05753,0.66497
3376.57537,0.66494
3376.09321,0.66478
3375.61104,0.66456
3375.12888,0.66444
3374.64672,0.66448
3374.16456,0.66461
3373.6824,0.66473
3373.20024,0.6648
3372.71808,0.66488
3372.23592,0.66503
3371.75375,0.66526
3371.27159,0.66563
3370.78943,0.66625
3370.30727,0.66689
3369.82511,0.66708
3369.34295,0.66683
3368.86079,0.66646
3368.37863,0.66611
3367.89646,0.66587
3367.4143,0.66597
3366.93214,0.66612
3366.44998,0.6658
3365.96782,0.66526
3365.48566,0.66503
3365.0035,0.66504
3364.52134,0.66513
3364.03917,0.6653
3363.55701,0.66542
3363.07485,0.66537
3362.59269,0.66524
3362.11053,0.66529
3361.62837,0.66574
3361.14621,0.66628
3360.66405,0.6665
3360.18188,0.66653
3359.69972,0.66657
3359.21756,0.66667
3358.7354,0.66678
3358.25324,0.66676
3357.77108,0.66656
3357.28892,0.66642
3356.80675,0.66641
3356.32459,0.66641
3355.84243,0.66652
3355.36027,0.66681
3354.87811,0.66713
3354.39595,0.66738
3353.91379,0.66754
3353.43163,0.66772
3352.94946,0.66799
3352.4673,0.66836
3351.98514,0.66888
3351.50298,0.66954
3351.02082,0.67011
3350.53866,0.67025
3350.0565,0.66992
3349.57434,0.66945
3349.09217,0.66915
3348.61001,0.66911
3348.12785,0.66921
3347.64569,0.6693
3347.16353,0.66935
3346.68137,0.66942
3346.19921,0.66955
3345.71705,0.66974
3345.23488,0.66988
3344.75272,0.66999
3344.27056,0.67029
3343.7884,0.67088
3343.30624,0.67136
3342.82408,0.67136
3342.34192,0.67113
3341.85976,0.671
3341.37759,0.67099
3340.89543,0.67113
3340.41327,0.67151
3339.93111,0.67212
3339.44895,0.67279
3338.96679,0.67324
3338.48463,0.67325
3338.00247,0.67274
3337.5203,0.67198
3337.03814,0.67163
3336.55598,0.67194
3336.07382,0.67234
3335.59166,0.67242
3335.1095,0.67236
3334.62734,0.6725
3334.14518,0.67284
3333.66301,0.6732
3333.18085,0.67349
3332.69869,0.67369
3332.21653,0.67383
3331.73437,0.67399
3331.25221,0.67419
3330.77005,0.67435
3330.28789,0.67444
3329.80572,0.67454
3329.32356,0.67473
3328.8414,0.67492
3328.35924,0.67496
3327.87708,0.67494
3327.39492,0.6751
3326.91276,0.67557
3326.43059,0.67635
3325.94843,0.67701
3325.46627,0.6771
3324.98411,0.67679
3324.50195,0.67659
3324.01979,0.67661
3323.53763,0.67673
3323.05547,0.6769
3322.5733,0.67711
3322.09114,0.67731
3321.60898,0.67749
3321.12682,0.67764
3320.64466,0.67776
3320.1625,0.67792
3319.68034,0.67811
3319.19818,0.67829
3318.71601,0.67846
3318.23385,0.67862
3317.75169,0.67875
3317.26953,0.6789
3316.78737,0.67907
3316.30521,0.67927
3315.82305,0.67951
3315.34089,0.67971
3314.85872,0.67982
3314.37656,0.67979
3313.8944,0.67964
3313.41224,0.67967
3312.93008,0.67997
3312.44792,0.6803
3311.96576,0.68061
3311.4836,0.68087
3311.00143,0.68106
3310.51927,0.68141
3310.03711,0.68185
3309.55495,0.68205
3309.07279,0.68202
3308.59063,0.68221
3308.10847,0.68279
3307.62631,0.68361
3307.14414,0.68437
3306.66198,0.68484
3306.17982,0.68506
3305.69766,0.68527
3305.2155,0.68547
3304.73334,0.68542
3304.25118,0.68503
3303.76902,0.68456
3303.28685,0.68431
3302.80469,0.68435
3302.32253,0.68451
3301.84037,0.68463
3301.35821,0.68473
3300.87605,0.68488
3300.39389,0.68505
3299.91173,0.68521
3299.42956,0.68534
3298.9474,0.6854
3298.46524,0.68537
3297.98308,0.68545
3297.50092,0.68586
3297.01876,0.68643
3296.5366,0.68681
3296.05443,0.68705
3295.57227,0.68732
3295.09011,0.68747
3294.60795,0.68738
3294.12579,0.68726
3293.64363,0.68724
3293.16147,0.68746
3292.67931,0.688
3292.19714,0.68839
3291.71498,0.68834
3291.23282,0.68819
3290.75066,0.6882
3290.2685,0.68827
3289.78634,0.6882
3289.30418,0.68804
3288.82202,0.68805
3288.33985,0.68834
3287.85769,0.68872
3287.37553,0.689
3286.89337,0.68918
3286.41121,0.68932
3285.92905,0.68948
3285.44689,0.68966
3284.96473,0.68973
3284.48256,0.68968
3284.0004,0.68964
3283.51824,0.68971
3283.03608,0.68991
3282.55392,0.69016
3282.07176,0.69037
3281.5896,0.6905
3281.10744,0.69056
3280.62527,0.6906
3280.14311,0.69073
3279.66095,0.69095
3279.17879,0.6912
3278.69663,0.69139
3278.21447,0.69152
3277.73231,0.69142
3277.25015,0.69102
3276.76798,0.69083
3276.28582,0.69133
3275.80366,0.69218
3275.3215,0.69272
3274.83934,0.69252
3274.35718,0.69177
3273.87502,0.6914
3273.39286,0.69185
3272.91069,0.69266
3272.42853,0.69348
3271.94637,0.69427
3271.46421,0.6948
3270.98205,0.69497
3270.49989,0.69493
3270.01773,0.69477
3269.53557,0.69451
3269.0534,0.69432
3268.57124,0.6943
3268.08908,0.69433
3267.60692,0.69432
3267.12476,0.69426
3266.6426,0.69423
3266.16044,0.69427
3265.67828,0.69438
3265.19611,0.69453
3264.71395,0.69463
3264.23179,0.69468
3263.74963,0.69478
3263.26747,0.69494
3262.78531,0.69512
3262.30315,0.69526
3261.82098,0.69534
3261.33882,0.6953
3260.85666,0.69525
3260.3745,0.69537
3259.89234,0.69561
3259.41018,0.69583
3258.92802,0.69596
3258.44586,0.69593
3257.96369,0.69581
3257.48153,0.69585
3256.99937,0.69618
3256.51721,0.69669
3256.03505,0.69714
3255.55289,0.69717
3255.07073,0.69656
3254.58857,0.69588
3254.1064,0.69591
3253.62424,0.6965
3253.14208,0.69699
3252.65992,0.69722
3252.17776,0.69737
3251.6956,0.69751
3251.21344,0.69763
3250.73128,0.69774
3250.24911,0.69788
3249.76695,0.69807
3249.28479,0.69827
3248.80263,0.69849
3248.32047,0.69879
3247.83831,0.6992
3247.35615,0.69947
3246.87399,0.69937
3246.39182,0.69893
3245.90966,0.69819
3245.4275,0.6975
3244.94534,0.69749
3244.46318,0.6981
3243.98102,0.69874
3243.49886,0.69915
3243.0167,0.6994
3242.53453,0.69956
3242.05237,0.69963
3241.57021,0.69967
3241.08805,0.69964
3240.60589,0.6996
3240.12373,0.69973
3239.64157,0.70003
3239.15941,0.70033
3238.67724,0.70051
3238.19508,0.70058
3237.71292,0.70052
3237.23076,0.70041
3236.7486,0.70052
3236.26644,0.70087
3235.78428,0.70123
3235.30212,0.70162
3234.81995,0.70216
3234.33779,0.70274
3233.85563,0.70303
3233.37347,0.70292
3232.89131,0.70269
3232.40915,0.70255
3231.92699,0.70249
3231.44482,0.70248
3230.96266,0.70242
3230.4805,0.70229
3229.99834,0.70227
3229.51618,0.70242
3229.03402,0.70264
3228.55186,0.70276
3228.0697,0.70273
3227.58753,0.70281
3227.10537,0.70311
3226.62321,0.70345
3226.14105,0.70371
3225.65889,0.70391
3225.17673,0.70411
3224.69457,0.70432
3224.21241,0.70447
3223.73024,0.70455
3223.24808,0.70461
3222.76592,0.70465
3222.28376,0.70472
3221.8016,0.70489
3221.31944,0.70504
3220.83728,0.70502
3220.35512,0.70484
3219.87295,0.70477
3219.39079,0.70513
3218.90863,0.70574
3218.42647,0.70618
3217.94431,0.70642
3217.46215,0.70656
3216.97999,0.70665
3216.49783,0.70678
3216.01566,0.70698
3215.5335,0.70706
3215.05134,0.70682
3214.56918,0.7065
3214.08702,0.70664
3213.60486,0.70723
3213.1227,0.70781
3212.64054,0.70818
3212.15837,0.70841
3211.67621,0.70856
3211.19405,0.70859
3210.71189,0.70839
3210.22973,0.70815
3209.74757,0.70833
3209.26541,0.70889
3208.78325,0.70941
3208.30108,0.70978
3207.81892,0.71011
3207.33676,0.71042
3206.8546,0.71066
3206.37244,0.71083
3205.89028,0.711
3205.40812,0.71118
3204.92596,0.71134
3204.44379,0.71148
3203.96163,0.71161
3203.47947,0.71179
3202.99731,0.71203
3202.51515,0.71226
3202.03299,0.71243
3201.55083,0.71257
3201.06866,0.71268
3200.5865,0.71276
3200.10434,0.71285
3199.62218,0.71298
3199.14002,0.71297
3198.65786,0.7127
3198.1757,0.71254
3197.69354,0.71288
3197.21137,0.71344
3196.72921,0.71385
3196.24705,0.71419
3195.76489,0.71456
3195.28273,0.71489
3194.80057,0.71515
3194.31841,0.71535
3193.83625,0.71557
3193.35408,0.71583
3192.87192,0.71605
3192.38976,0.71618
3191.9076,0.7163
3191.42544,0.71648
3190.94328,0.71672
3190.46112,0.71698
3189.97896,0.71722
3189.49679,0.71749
3189.01463,0.71774
3188.53247,0.71789
3188.05031,0.71798
3187.56815,0.71812
3187.08599,0.71828
3186.60383,0.71837
3186.12167,0.71831
3185.6395,0.71827
3185.15734,0.71848
3184.67518,0.71891
3184.19302,0.71934
3183.71086,0.71967
3183.2287,0.71992
3182.74654,0.72009
3182.26438,0.72029
3181.78221,0.72052
3181.30005,0.72073
3180.81789,0.72088
3180.33573,0.72102
3179.85357,0.72113
3179.37141,0.72099
3178.88925,0.72051
3178.40709,0.72021
3177.92492,0.72061
3177.44276,0.72142
3176.9606,0.72211
3176.47844,0.72256
3175.99628,0.72281
3175.51412,0.72295
3175.03196,0.7231
3174.5498,0.72329
3174.06763,0.72349
3173.58547,0.7237
3173.10331,0.72393
3172.62115,0.72411
3172.13899,0.72425
3171.65683,0.72444
3171.17467,0.72466
3170.69251,0.72478
3170.21034,0.72483
3169.72818,0.72502
3169.24602,0.72533
3168.76386,0.72559
3168.2817,0.72575
3167.79954,0.72595
3167.31738,0.72622
3166.83521,0.72645
3166.35305,0.72664
3165.87089,0.72681
3165.38873,0.72698
3164.90657,0.72713
3164.42441,0.72728
3163.94225,0.72745
3163.46009,0.72768
3162.97792,0.72794
3162.49576,0.72813
3162.0136,0.72828
3161.53144,0.72844
3161.04928,0.72863
3160.56712,0.7288
3160.08496,0.72896
3159.6028,0.72914
3159.12063,0.72931
3158.63847,0.72945
3158.15631,0.72963
3157.67415,0.72987
3157.19199,0.7301
3156.70983,0.7303
3156.22767,0.7305
3155.74551,0.73073
3155.26334,0.73099
3154.78118,0.73128
3154.29902,0.73163
3153.81686,0.7321
3153.3347,0.73271
3152.85254,0.73329
3152.37038,0.73357
3151.88822,0.73343
3151.40605,0.73311
3150.92389,0.73288
3150.44173,0.73284
3149.95957,0.73292
3149.47741,0.73304
3148.99525,0.73319
3148.51309,0.73338
3148.03093,0.73355
3147.54876,0.73369
3147.0666,0.73378
3146.58444,0.7339
3146.10228,0.73407
3145.62012,0.73424
3145.13796,0.73442
3144.6558,0.73466
3144.17364,0.73488
3143.69147,0.73499
3143.20931,0.73507
3142.72715,0.73526
3142.24499,0.73553
3141.76283,0.73579
3141.28067,0.73605
3140.79851,0.73648
3140.31635,0.73703
3139.83418,0.73745
3139.35202,0.7376
3138.86986,0.73766
3138.3877,0.73774
3137.90554,0.73773
3137.42338,0.73763
3136.94122,0.73759
3136.45905,0.73768
3135.97689,0.73778
3135.49473,0.73784
3135.01257,0.73795
3134.53041,0.73798
3134.04825,0.73765
3133.56609,0.73714
3133.08393,0.73718
3132.60176,0.73786
3132.1196,0.73854
3131.63744,0.73899
3131.15528,0.73937
3130.67312,0.73979
3130.19096,0.74018
3129.7088,0.74037
3129.22664,0.74035
3128.74447,0.7403
3128.26231,0.74024
3127.78015,0.74006
3127.29799,0.73981
3126.81583,0.73983
3126.33367,0.74016
3125.85151,0.74056
3125.36935,0.7409
3124.88718,0.74125
3124.40502,0.74149
3123.92286,0.74143
3123.4407,0.74099
3122.95854,0.74054
3122.47638,0.74079
3121.99422,0.74176
3121.51206,0.74289
3121.02989,0.74375
3120.54773,0.74417
3120.06557,0.74405
3119.58341,0.74355
3119.10125,0.7432
3118.61909,0.74338
3118.13693,0.74402
3117.65477,0.74477
3117.1726,0.74503
3116.69044,0.74458
3116.20828,0.74415
3115.72612,0.7444
3115.24396,0.74488
3114.7618,0.74502
3114.27964,0.74495
3113.79748,0.74491
3113.31531,0.74487
3112.83315,0.74486
3112.35099,0.74499
3111.86883,0.74525
3111.38667,0.74548
3110.90451,0.74561
3110.42235,0.74582
3109.94019,0.74629
3109.45802,0.74695
3108.97586,0.74742
3108.4937,0.7474
3108.01154,0.74701
3107.52938,0.74668
3107.04722,0.74666
3106.56506,0.74687
3106.08289,0.74711
3105.60073,0.74728
3105.11857,0.74736
3104.63641,0.74744
3104.15425,0.74751
3103.67209,0.74748
3103.18993,0.74746
3102.70777,0.7476
3102.2256,0.74761
3101.74344,0.74744
3101.26128,0.74764
3100.77912,0.74822
3100.29696,0.74861
3099.8148,0.74879
3099.33264,0.74905
3098.85048,0.7492
3098.36831,0.74914
3097.88615,0.74909
3097.40399,0.74912
3096.92183,0.74894
3096.43967,0.74856
3095.95751,0.74851
3095.47535,0.74899
3094.99319,0.74959
3094.51102,0.75
3094.02886,0.75032
3093.5467,0.75065
3093.06454,0.75097
3092.58238,0.75121
3092.10022,0.75139
3091.61806,0.7517
3091.1359,0.75218
3090.65373,0.75259
3090.17157,0.75268
3089.68941,0.75253
3089.20725,0.75237
3088.72509,0.75232
3088.24293,0.75239
3087.76077,0.75254
3087.27861,0.75267
3086.79644,0.75249
3086.31428,0.75203
3085.83212,0.75203
3085.34996,0.75285
3084.8678,0.75385
3084.38564,0.7543
3083.90348,0.7541
3083.42132,0.75361
3082.93915,0.75333
3082.45699,0.75342
3081.97483,0.75375
3081.49267,0.75427
3081.01051,0.75479
3080.52835,0.7548
3080.04619,0.75444
3079.56403,0.75447
3079.08186,0.755
3078.5997,0.75543
3078.11754,0.75557
3077.63538,0.7556
3077.15322,0.75559
3076.67106,0.75553
3076.1889,0.75546
3075.70674,0.75543
3075.22457,0.75547
3074.74241,0.75559
3074.26025,0.75547
3073.77809,0.75453
3073.29593,0.75331
3072.81377,0.75332
3072.33161,0.7545
3071.84944,0.75551
3071.36728,0.75574
3070.88512,0.75563
3070.40296,0.75582
3069.9208,0.75631
3069.43864,0.7568
3068.95648,0.75728
3068.47432,0.75769
3067.99215,0.7576
3067.50999,0.75712
3067.02783,0.75704
3066.54567,0.75741
3066.06351,0.75762
3065.58135,0.75736
3065.09919,0.75677
3064.61703,0.75649
3064.13486,0.75699
3063.6527,0.75777
3063.17054,0.75817
3062.68838,0.75827
3062.20622,0.75837
3061.72406,0.75848
3061.2419,0.7585
3060.75974,0.75786
3060.27757,0.75541
3059.79541,0.75228
3059.31325,0.75202
3058.83109,0.75473
3058.34893,0.75706
3057.86677,0.7575
3057.38461,0.75688
3056.90245,0.75663
3056.42028,0.75738
3055.93812,0.75862
3055.45596,0.75975
3054.9738,0.76046
3054.49164,0.76067
3054.00948,0.76055
3053.52732,0.76043
3053.04516,0.7605
3052.56299,0.76075
3052.08083,0.76119
3051.59867,0.76169
3051.11651,0.76193
3050.63435,0.76182
3050.15219,0.7615
3049.67003,0.76103
3049.18787,0.76062
3048.7057,0.76058
3048.22354,0.76092
3047.74138,0.76134
3047.25922,0.76164
3046.77706,0.76165
3046.2949,0.75941
3045.81274,0.75314
3045.33058,0.748
3044.84841,0.7502
3044.36625,0.7561
3043.88409,0.75915
3043.40193,0.7588
3042.91977,0.75839
3042.43761,0.75989
3041.95545,0.76181
3041.47328,0.76293
3040.99112,0.76359
3040.50896,0.76389
3040.0268,0.76386
3039.54464,0.76366
3039.06248,0.76352
3038.58032,0.76347
3038.09816,0.76351
3037.61599,0.7636
3037.13383,0.76369
3036.65167,0.76386
3036.16951,0.76411
3035.68735,0.76446
3035.20519,0.76456
3034.72303,0.76438
3034.24087,0.76437
3033.7587,0.7647
3033.27654,0.76484
3032.79438,0.76434
3032.31222,0.76352
3031.83006,0.76256
3031.3479,0.75798
3030.86574,0.7461
3030.38358,0.73634
3029.90141,0.74046
3029.41925,0.75178
3028.93709,0.75752
3028.45493,0.75612
3027.97277,0.75453
3027.49061,0.75732
3027.00845,0.76161
3026.52629,0.76404
3026.04412,0.7651
3025.56196,0.76584
3025.0798,0.76641
3024.59764,0.76666
3024.11548,0.76662
3023.63332,0.76647
3023.15116,0.76637
3022.669,0.76637
3022.18683,0.76652
3021.70467,0.76671
3021.22251,0.76687
3020.74035,0.76701
3020.25819,0.76727
3019.77603,0.76745
3019.29387,0.76738
3018.81171,0.76722
3018.32954,0.76716
3017.84738,0.76728
3017.36522,0.76745
3016.88306,0.76743
3016.4009,0.76697
3015.91874,0.76367
3015.43658,0.74967
3014.95442,0.72809
3014.47225,0.72172
3013.99009,0.73675
3013.50793,0.75195
3013.02577,0.75369
3012.54361,0.74923
3012.06145,0.75088
3011.57929,0.75868
3011.09712,0.76479
3010.61496,0.76728
3010.1328,0.76812
3009.65064,0.76847
3009.16848,0.76869
3008.68632,0.76884
3008.20416,0.76899
3007.722,0.7691
3007.23983,0.76915
3006.75767,0.76913
3006.27551,0.76911
3005.79335,0.76911
3005.31119,0.76909
3004.82903,0.76914
3004.34687,0.76923
3003.86471,0.76934
3003.38254,0.76942
3002.90038,0.76951
3002.41822,0.76967
3001.93606,0.76982
3001.4539,0.76989
3000.97174,0.76984
3000.48958,0.76967
3000.00742,0.76904
2999.52525,0.76335
2999.04309,0.74078
2998.56093,0.70853
2998.07877,0.70082
2997.59661,0.72391
2997.11445,0.74561
2996.63229,0.74732
2996.15013,0.7408
2995.66796,0.74371
2995.1858,0.75512
2994.70364,0.76412
2994.22148,0.76844
2993.73932,0.77041
2993.25716,0.77139
2992.775,0.77178
2992.29284,0.77176
2991.81067,0.77154
2991.32851,0.77134
2990.84635,0.77124
2990.36419,0.77116
2989.88203,0.77114
2989.39987,0.77105
2988.91771,0.77103
2988.43555,0.77101
2987.95338,0.771
2987.47122,0.77108
2986.98906,0.77119
2986.5069,0.77133
2986.02474,0.77137
2985.54258,0.7714
2985.06042,0.77133
2984.57826,0.77122
2984.09609,0.77107
2983.61393,0.77084
2983.13177,0.77028
2982.64961,0.76638
2982.16745,0.74538
2981.68529,0.70258
2981.20313,0.67567
2980.72097,0.69441
2980.2388,0.72855
2979.75664,0.74
2979.27448,0.73224
2978.79232,0.73125
2978.31016,0.74484
2977.828,0.75906
2977.34584,0.7664
2976.86367,0.76931
2976.38151,0.77016
2975.89935,0.77031
2975.41719,0.77039
2974.93503,0.77041
2974.45287,0.77015
2973.97071,0.76971
2973.48855,0.76932
2973.00638,0.76906
2972.52422,0.76884
2972.04206,0.76856
2971.5599,0.76825
2971.07774,0.7679
2970.59558,0.7675
2970.11342,0.76703
2969.63126,0.76654
2969.14909,0.76608
2968.66693,0.76559
2968.18477,0.76513
2967.70261,0.76468
2967.22045,0.76419
2966.73829,0.76361
2966.25613,0.76294
2965.77397,0.76212
2965.2918,0.76051
2964.80964,0.75184
2964.32748,0.71869
2963.84532,0.66803
2963.36316,0.65028
2962.881,0.68219
2962.39884,0.71715
2961.91668,0.72199
2961.43451,0.71326
2960.95235,0.71901
2960.47019,0.73804
2959.98803,0.75318
2959.50587,0.76054
2959.02371,0.76358
2958.54155,0.76478
2958.05939,0.76545
2957.57722,0.76606
2957.09506,0.76674
2956.6129,0.76732
2956.13074,0.76791
2955.64858,0.76837
2955.16642,0.76884
2954.68426,0.76925
2954.2021,0.76976
2953.71993,0.77047
2953.23777,0.77116
2952.75561,0.77171
2952.27345,0.77184
2951.79129,0.77187
2951.30913,0.77188
2950.82697,0.77201
2950.34481,0.7722
2949.86264,0.77233
2949.38048,0.77251
2948.89832,0.77261
2948.41616,0.77285
2947.934,0.77311
2947.45184,0.77311
2946.96968,0.77191
2946.48751,0.76392
2946.00535,0.73177
2945.52319,0.67805
2945.04103,0.65379
2944.55887,0.68385
2944.07671,0.72285
2943.59455,0.73104
2943.11239,0.7223
2942.63022,0.72709
2942.14806,0.74639
2941.6659,0.76258
2941.18374,0.77041
2940.70158,0.77352
2940.21942,0.7745
2939.73726,0.77476
2939.2551,0.77482
2938.77293,0.77484
2938.29077,0.77487
2937.80861,0.77495
2937.32645,0.77501
2936.84429,0.77507
2936.36213,0.77511
2935.87997,0.7751
2935.39781,0.77507
2934.91564,0.77503
2934.43348,0.77495
2933.95132,0.77487
2933.46916,0.77483
2932.987,0.77484
2932.50484,0.77493
2932.02268,0.77498
2931.54052,0.77502
2931.05835,0.77513
2930.57619,0.77537
2930.09403,0.77547
2929.61187,0.77523
2929.12971,0.77468
2928.64755,0.77397
2928.16539,0.77294
2927.68323,0.7697
2927.20106,0.75264
2926.7189,0.70961
2926.23674,0.66946
2925.75458,0.67614
2925.27242,0.7136
2924.79026,0.7343
2924.3081,0.73069
2923.82594,0.72917
2923.34377,0.74272
2922.86161,0.75891
2922.37945,0.76796
2921.89729,0.77168
2921.41513,0.77287
2920.93297,0.7732
2920.45081,0.7733
2919.96865,0.77344
2919.48648,0.77362
2919.00432,0.77384
2918.52216,0.774
2918.04,0.77403
2917.55784,0.77421
2917.07568,0.77447
2916.59352,0.77468
2916.11135,0.77472
2915.62919,0.77486
2915.14703,0.77529
2914.66487,0.77596
2914.18271,0.77673
2913.70055,0.77725
2913.21839,0.77742
2912.73623,0.77724
2912.25406,0.77707
2911.7719,0.77712
2911.28974,0.77736
2910.80758,0.77763
2910.32542,0.77773
2909.84326,0.77775
2909.3611,0.77764
2908.87894,0.77741
2908.39677,0.77681
2907.91461,0.77369
2907.43245,0.75868
2906.95029,0.72841
2906.46813,0.70861
2905.98597,0.72089
2905.50381,0.74488
2905.02165,0.75404
2904.53948,0.75181
2904.05732,0.75434
2903.57516,0.76405
2903.093,0.77262
2902.61084,0.77693
2902.12868,0.77872
2901.64652,0.77941
2901.16436,0.77977
2900.68219,0.78002
2900.20003,0.7802
2899.71787,0.78027
2899.23571,0.78036
2898.75355,0.78054
2898.27139,0.78072
2897.78923,0.78087
2897.30707,0.7811
2896.8249,0.78151
2896.34274,0.78187
2895.86058,0.78198
2895.37842,0.7819
2894.89626,0.78184
2894.4141,0.78186
2893.93194,0.78191
2893.44978,0.78203
2892.96761,0.78214
2892.48545,0.78225
2892.00329,0.78235
2891.52113,0.78246
2891.03897,0.78254
2890.55681,0.7826
2890.07465,0.78271
2889.59249,0.78281
2889.11032,0.78287
2888.62816,0.78291
2888.146,0.783
2887.66384,0.78312
2887.18168,0.78323
2886.69952,0.78335
2886.21736,0.78346
2885.7352,0.78353
2885.25303,0.78356
2884.77087,0.78358
2884.28871,0.78366
2883.80655,0.78378
2883.32439,0.78388
2882.84223,0.78397
2882.36007,0.78403
2881.8779,0.78405
2881.39574,0.78407
2880.91358,0.78413
2880.43142,0.78419
2879.94926,0.78424
2879.4671,0.78428
2878.98494,0.7843
2878.50278,0.78434
2878.02061,0.78439
2877.53845,0.78447
2877.05629,0.78457
2876.57413,0.78463
2876.09197,0.78466
2875.60981,0.78471
2875.12765,0.78487
2874.64549,0.78519
2874.16332,0.78561
2873.68116,0.78588
2873.199,0.78582
2872.71684,0.78555
2872.23468,0.78528
2871.75252,0.78515
2871.27036,0.7851
2870.7882,0.78507
2870.30603,0.78502
2869.82387,0.78497
2869.34171,0.78494
2868.85955,0.78494
2868.37739,0.78492
2867.89523,0.78477
2867.41307,0.78437
2866.93091,0.78291
2866.44874,0.77414
2865.96658,0.74922
2865.48442,0.7224
2865.00226,0.72272
2864.5201,0.74496
2864.03794,0.75936
2863.55578,0.75933
2863.07362,0.76007
2862.59145,0.76841
2862.10929,0.77738
2861.62713,0.78229
2861.14497,0.7844
2860.66281,0.78525
2860.18065,0.78559
2859.69849,0.7856
2859.21633,0.78546
2858.73416,0.78528
2858.252,0.78522
2857.76984,0.7852
2857.28768,0.78517
2856.80552,0.78514
2856.32336,0.78506
2855.8412,0.785
2855.35904,0.78489
2854.87687,0.78479
2854.39471,0.78465
2853.91255,0.78455
2853.43039,0.78447
2852.94823,0.78435
2852.46607,0.78421
2851.98391,0.78399
2851.50174,0.78379
2851.01958,0.78359
2850.53742,0.78352
2850.05526,0.78349
2849.5731,0.78349
2849.09094,0.78365
2848.60878,0.78396
2848.12662,0.78434
2847.64445,0.78457
2847.16229,0.7847
2846.68013,0.7847
2846.19797,0.78453
2845.71581,0.7838
2845.23365,0.77873
2844.75149,0.75508
2844.26933,0.7109
2843.78716,0.68613
2843.305,0.7071
2842.82284,0.73893
2842.34068,0.74722
2841.85852,0.74459
2841.37636,0.75304
2840.8942,0.7691
2840.41204,0.78053
2839.92987,0.78593
2839.44771,0.78823
2838.96555,0.78906
2838.48339,0.78928
2838.00123,0.78921
2837.51907,0.78906
2837.03691,0.78896
2836.55475,0.789
2836.07258,0.78913
2835.59042,0.78932
2835.10826,0.78946
2834.6261,0.78947
2834.14394,0.78945
2833.66178,0.78948
2833.17962,0.78959
2832.69746,0.78966
2832.21529,0.78967
2831.73313,0.78965
2831.25097,0.78961
2830.76881,0.78962
2830.28665,0.78968
2829.80449,0.78977
2829.32233,0.78988
2828.84017,0.78996
2828.358,0.78999
2827.87584,0.78994
2827.39368,0.78993
2826.91152,0.78998
2826.42936,0.79003
2825.9472,0.79002
2825.46504,0.78993
2824.98288,0.7898
2824.50071,0.78958
2824.01855,0.7891
2823.53639,0.78767
2823.05423,0.77884
2822.57207,0.74602
2822.08991,0.69771
2821.60775,0.68269
2821.12558,0.71321
2820.64342,0.74183
2820.16126,0.74411
2819.6791,0.74359
2819.19694,0.75745
2818.71478,0.77475
2818.23262,0.78472
2817.75046,0.78885
2817.26829,0.79019
2816.78613,0.79055
2816.30397,0.79072
2815.82181,0.7909
2815.33965,0.79105
2814.85749,0.79115
2814.37533,0.79129
2813.89317,0.79133
2813.411,0.79136
2812.92884,0.79137
2812.44668,0.79148
2811.96452,0.79158
2811.48236,0.79168
2811.0002,0.79186
2810.51804,0.79205
2810.03588,0.79216
2809.55371,0.79208
2809.07155,0.79201
2808.58939,0.79195
2808.10723,0.79193
2807.62507,0.79194
2807.14291,0.79194
2806.66075,0.79202
2806.17859,0.79206
2805.69642,0.79207
2805.21426,0.792
2804.7321,0.79199
2804.24994,0.79202
2803.76778,0.79207
2803.28562,0.79211
2802.80346,0.79205
2802.3213,0.79194
2801.83913,0.79174
2801.35697,0.79136
2800.87481,0.79006
2800.39265,0.78127
2799.91049,0.74958
2799.42833,0.7056
2798.94617,0.69522
2798.46401,0.72484
2797.98184,0.74884
2797.49968,0.74942
2797.01752,0.75065
2796.53536,0.76488
2796.0532,0.78012
2795.57104,0.78823
2795.08888,0.79138
2794.60672,0.79235
2794.12455,0.79262
2793.64239,0.79274
2793.16023,0.79286
2792.67807,0.79304
2792.19591,0.79326
2791.71375,0.79343
2791.23159,0.79345
2790.74943,0.79343
2790.26726,0.79351
2789.7851,0.79376
2789.30294,0.794
2788.82078,0.79402
2788.33862,0.79387
2787.85646,0.79372
2787.3743,0.79363
2786.89213,0.79361
2786.40997,0.79364
2785.92781,0.79366
2785.44565,0.79369
2784.96349,0.79374
2784.48133,0.79381
2783.99917,0.79388
2783.51701,0.79393
2783.03484,0.79394
2782.55268,0.79397
2782.07052,0.79401
2781.58836,0.79406
2781.1062,0.79408
2780.62404,0.79409
2780.14188,0.79405
2779.65972,0.79401
2779.17755,0.79396
2778.69539,0.79384
2778.21323,0.79358
2777.73107,0.79283
2777.24891,0.78714
2776.76675,0.76358
2776.28459,0.72729
2775.80243,0.71554
2775.32026,0.7383
2774.8381,0.75899
2774.35594,0.76042
2773.87378,0.76156
2773.39162,0.77291
2772.90946,0.785
2772.4273,0.79131
2771.94514,0.79374
2771.46297,0.79447
2770.98081,0.7947
2770.49865,0.7948
2770.01649,0.79486
2769.53433,0.79492
2769.05217,0.79499
2768.57001,0.7951
2768.08785,0.79513
2767.60568,0.79517
2767.12352,0.79521
2766.64136,0.79528
2766.1592,0.79531
2765.67704,0.79537
2765.19488,0.79547
2764.71272,0.79552
2764.23056,0.79554
2763.74839,0.7955
2763.26623,0.79552
2762.78407,0.79556
2762.30191,0.79564
2761.81975,0.79565
2761.33759,0.79561
2760.85543,0.79562
2760.37327,0.7956
2759.8911,0.79564
2759.40894,0.79569
2758.92678,0.79576
2758.44462,0.79579
2757.96246,0.79579
2757.4803,0.79579
2756.99814,0.79577
2756.51597,0.79582
2756.03381,0.79587
2755.55165,0.79588
2755.06949,0.79579
2754.58733,0.79568
2754.10517,0.79544
2753.62301,0.79302
2753.14085,0.77967
2752.65868,0.75358
2752.17652,0.73916
2751.69436,0.7519
2751.2122,0.76917
2750.73004,0.77262
2750.24788,0.77303
2749.76572,0.7803
2749.28356,0.78904
2748.80139,0.79394
2748.31923,0.79594
2747.83707,0.79664
2747.35491,0.79674
2746.87275,0.79667
2746.39059,0.79662
2745.90843,0.79664
2745.42627,0.79667
2744.9441,0.7967
2744.46194,0.79671
2743.97978,0.79676
2743.49762,0.79683
2743.01546,0.79686
2742.5333,0.79686
2742.05114,0.79686
2741.56898,0.79689
2741.08681,0.79694
2740.60465,0.79699
2740.12249,0.79705
2739.64033,0.7971
2739.15817,0.79712
2738.67601,0.79715
2738.19385,0.79725
2737.71169,0.79734
2737.22952,0.79735
2736.74736,0.79731
2736.2652,0.79731
2735.78304,0.79734
2735.30088,0.79737
2734.81872,0.7974
2734.33656,0.79742
2733.8544,0.79742
2733.37223,0.79743
2732.89007,0.79744
2732.40791,0.79748
2731.92575,0.79748
2731.44359,0.79745
2730.96143,0.79743
2730.47927,0.79744
2729.99711,0.79735
2729.51494,0.79675
2729.03278,0.79143
2728.55062,0.77653
2728.06846,0.76288
2727.5863,0.7663
2727.10414,0.77857
2726.62198,0.78342
2726.13981,0.78348
2725.65765,0.78705
2725.17549,0.79259
2724.69333,0.79603
2724.21117,0.79741
2723.72901,0.79789
2723.24685,0.79807
2722.76469,0.79822
2722.28252,0.7983
2721.80036,0.79832
2721.3182,0.79828
2720.83604,0.79826
2720.35388,0.79823
2719.87172,0.79821
2719.38956,0.79825
2718.9074,0.7983
2718.42523,0.79835
2717.94307,0.79837
2717.46091,0.79838
2716.97875,0.7984
2716.49659,0.79846
2716.01443,0.79852
2715.53227,0.79857
2715.05011,0.79859
2714.56794,0.79859
2714.08578,0.79864
2713.60362,0.79867
2713.12146,0.79869
2712.6393,0.79872
2712.15714,0.79876
2711.67498,0.79878
2711.19282,0.7988
2710.71065,0.79885
2710.22849,0.79893
2709.74633,0.799
2709.26417,0.79897
2708.78201,0.79894
2708.29985,0.79897
2707.81769,0.79904
2707.33553,0.79908
2706.85336,0.79909
2706.3712,0.79909
2705.88904,0.7991
2705.40688,0.79911
2704.92472,0.79903
2704.44256,0.79761
2703.9604,0.79131
2703.47824,0.78204
2702.99607,0.77991
2702.51391,0.78611
2702.03175,0.79076
2701.54959,0.7913
2701.06743,0.79264
2700.58527,0.79565
2700.10311,0.79799
2699.62095,0.79912
2699.13878,0.79952
2698.65662,0.79958
2698.17446,0.79959
2697.6923,0.79961
2697.21014,0.79962
2696.72798,0.79967
2696.24582,0.79974
2695.76366,0.79976
2695.28149,0.79972
2694.79933,0.79972
2694.31717,0.79977
2693.83501,0.79984
2693.35285,0.79987
2692.87069,0.79992
2692.38853,0.79993
2691.90636,0.79991
2691.4242,0.79994
2690.94204,0.8
2690.45988,0.80002
2689.97772,0.80002
2689.49556,0.80006
2689.0134,0.8001
2688.53124,0.80011
2688.04907,0.80012
2687.56691,0.80014
2687.08475,0.80016
2686.60259,0.80019
2686.12043,0.80025
2685.63827,0.80031
2685.15611,0.80036
2684.67395,0.8004
2684.19178,0.80041
2683.70962,0.80037
2683.22746,0.80035
2682.7453,0.80038
2682.26314,0.80047
2681.78098,0.80059
2681.29882,0.80069
2680.81666,0.80069
2680.33449,0.80066
2679.85233,0.80062
2679.37017,0.80038
2678.88801,0.79851
2678.40585,0.79409
2677.92369,0.79105
2677.44153,0.79292
2676.95937,0.79608
2676.4772,0.79695
2675.99504,0.79727
2675.51288,0.79855
2675.03072,0.79985
2674.54856,0.80053
2674.0664,0.80085
2673.58424,0.80099
2673.10208,0.80102
2672.61991,0.801
2672.13775,0.80096
2671.65559,0.80095
2671.17343,0.80097
2670.69127,0.80101
2670.20911,0.80106
2669.72695,0.80111
2669.24479,0.80114
2668.76262,0.80116
2668.28046,0.80119
2667.7983,0.80123
2667.31614,0.80127
2666.83398,0.80128
2666.35182,0.80127
2665.86966,0.80125
2665.3875,0.80122
2664.90533,0.80122
2664.42317,0.80124
2663.94101,0.80126
2663.45885,0.80128
2662.97669,0.80131
2662.49453,0.80138
2662.01237,0.80149
2661.5302,0.80158
2661.04804,0.80159
2660.56588,0.80155
2660.08372,0.80151
2659.60156,0.80152
2659.1194,0.80158
2658.63724,0.80165
2658.15508,0.80169
2657.67291,0.80174
2657.19075,0.80177
2656.70859,0.80176
2656.22643,0.80175
2655.74427,0.80177
2655.26211,0.80182
2654.77995,0.80185
2654.29779,0.80184
2653.81562,0.80183
2653.33346,0.80152
2652.8513,0.80006
2652.36914,0.79815
2651.88698,0.798
2651.40482,0.79939
2650.92266,0.80024
2650.4405,0.80042
2649.95833,0.80088
2649.47617,0.80153
2648.99401,0.80194
2648.51185,0.80213
2648.02969,0.80221
2647.54753,0.80223
2647.06537,0.8022
2646.58321,0.80222
2646.10104,0.80231
2645.61888,0.80239
2645.13672,0.80241
2644.65456,0.80241
2644.1724,0.80241
2643.69024,0.80239
2643.20808,0.80237
2642.72592,0.80241
2642.24375,0.80249
2641.76159,0.80254
2641.27943,0.80255
2640.79727,0.80257
2640.31511,0.80264
2639.83295,0.80269
2639.35079,0.80271
2638.86863,0.80273
2638.38646,0.80276
2637.9043,0.80277
2637.42214,0.80276
2636.93998,0.80277
2636.45782,0.80282
2635.97566,0.80283
2635.4935,0.80285
2635.01134,0.8029
2634.52917,0.80295
2634.04701,0.80299
2633.56485,0.80299
2633.08269,0.80297
2632.60053,0.80297
2632.11837,0.803
2631.63621,0.80303
2631.15405,0.80308
2630.67188,0.80314
2630.18972,0.80315
2629.70756,0.80314
2629.2254,0.80315
2628.74324,0.80318
2628.26108,0.8032
2627.77892,0.80326
2627.29675,0.80329
2626.81459,0.80298
2626.33243,0.80223
2625.85027,0.8018
2625.36811,0.80215
2624.88595,0.80259
2624.40379,0.80269
2623.92163,0.80281
2623.43946,0.80309
2622.9573,0.80332
2622.47514,0.80344
2621.99298,0.80352
2621.51082,0.80357
2621.02866,0.80361
2620.5465,0.80362
2620.06434,0.8036
2619.58217,0.80359
2619.10001,0.80362
2618.61785,0.80367
2618.13569,0.80367
2617.65353,0.80369
2617.17137,0.80376
2616.68921,0.80386
2616.20705,0.80388
2615.72488,0.80381
2615.24272,0.80375
2614.76056,0.80377
2614.2784,0.80382
2613.79624,0.80385
2613.31408,0.80388
2612.83192,0.80389
2612.34976,0.80391
2611.86759,0.80396
2611.38543,0.80401
2610.90327,0.80404
2610.42111,0.80406
2609.93895,0.80408
2609.45679,0.80412
2608.97463,0.80416
2608.49247,0.80419
2608.0103,0.80417
2607.52814,0.80414
2607.04598,0.80417
2606.56382,0.80425
2606.08166,0.80433
2605.5995,0.80435
2605.11734,0.80435
2604.63518,0.80434
2604.15301,0.80433
2603.67085,0.80434
2603.18869,0.80435
2602.70653,0.80437
2602.22437,0.80443
2601.74221,0.80447
2601.26005,0.80447
2600.77789,0.80446
2600.29572,0.80443
2599.81356,0.80426
2599.3314,0.80407
2598.84924,0.80415
2598.36708,0.80436
2597.88492,0.80446
2597.40276,0.80451
2596.92059,0.80457
2596.43843,0.80463
2595.95627,0.80469
2595.47411,0.80475
2594.99195,0.80477
2594.50979,0.80479
2594.02763,0.80484
2593.54547,0.80492
2593.0633,0.80496
2592.58114,0.80497
2592.09898,0.80499
2591.61682,0.80501
2591.13466,0.80498
2590.6525,0.80494
2590.17034,0.80495
2589.68818,0.80498
2589.20601,0.80504
2588.72385,0.80509
2588.24169,0.80511
2587.75953,0.80512
2587.27737,0.80516
2586.79521,0.80523
2586.31305,0.80527
2585.83089,0.80524
2585.34872,0.8052
2584.86656,0.80522
2584.3844,0.80528
2583.90224,0.80536
2583.42008,0.8054
2582.93792,0.8054
2582.45576,0.80541
2581.9736,0.80544
2581.49143,0.80547
2581.00927,0.80547
2580.52711,0.80546
2580.04495,0.80545
2579.56279,0.80547
2579.08063,0.80554
2578.59847,0.80563
2578.11631,0.80567
2577.63414,0.80566
2577.15198,0.80565
2576.66982,0.80568
2576.18766,0.80573
2575.7055,0.80578
2575.22334,0.80581
2574.74118,0.8058
2574.25902,0.80578
2573.77685,0.80581
2573.29469,0.80586
2572.81253,0.80583
2572.33037,0.80573
2571.84821,0.8057
2571.36605,0.80579
2570.88389,0.80589
2570.40173,0.80593
2569.91956,0.80595
2569.4374,0.80601
2568.95524,0.80606
2568.47308,0.80607
2567.99092,0.80608
2567.50876,0.80609
2567.0266,0.8061
2566.54443,0.80613
2566.06227,0.80617
2565.58011,0.80617
2565.09795,0.80616
2564.61579,0.80615
2564.13363,0.80615
2563.65147,0.80617
2563.16931,0.8062
2562.68714,0.80623
2562.20498,0.80626
2561.72282,0.80632
2561.24066,0.80636
2560.7585,0.80637
2560.27634,0.8064
2559.79418,0.80645
2559.31202,0.80647
2558.82985,0.80645
2558.34769,0.80644
2557.86553,0.80647
2557.38337,0.80651
2556.90121,0.80653
2556.41905,0.80656
2555.93689,0.8066
2555.45473,0.80659
2554.97256,0.80656
2554.4904,0.80659
2554.00824,0.80667
2553.52608,0.80672
2553.04392,0.80675
2552.56176,0.80677
2552.0796,0.80679
2551.59744,0.8068
2551.11527,0.80679
2550.63311,0.80679
2550.15095,0.80678
2549.66879,0.80678
2549.18663,0.80681
2548.70447,0.80689
2548.22231,0.80697
2547.74015,0.80699
2547.25798,0.80698
2546.77582,0.80698
2546.29366,0.80701
2545.8115,0.80705
2545.32934,0.80709
2544.84718,0.80712
2544.36502,0.80714
2543.88286,0.80715
2543.40069,0.80714
2542.91853,0.80715
2542.43637,0.8072
2541.95421,0.80725
2541.47205,0.80729
2540.98989,0.80732
2540.50773,0.80735
2540.02557,0.80737
2539.5434,0.80739
2539.06124,0.80742
2538.57908,0.80742
2538.09692,0.8074
2537.61476,0.80741
2537.1326,0.80747
2536.65044,0.80751
2536.16828,0.80748
2535.68611,0.80748
2535.20395,0.80753
2534.72179,0.80756
2534.23963,0.80755
2533.75747,0.80755
2533.27531,0.80756
2532.79315,0.80759
2532.31098,0.80764
2531.82882,0.8077
2531.34666,0.80773
2530.8645,0.80779
2530.38234,0.80786
2529.90018,0.80792
2529.41802,0.80793
2528.93586,0.80791
2528.45369,0.80791
2527.97153,0.80793
2527.48937,0.80793
2527.00721,0.80789
2526.52505,0.80787
2526.04289,0.80792
2525.56073,0.808
2525.07857,0.80805
2524.5964,0.80806
2524.11424,0.80807
2523.63208,0.80811
2523.14992,0.80813
2522.66776,0.80812
2522.1856,0.80809
2521.70344,0.8081
2521.22128,0.80814
2520.73911,0.80817
2520.25695,0.80821
2519.77479,0.80823
2519.29263,0.80825
2518.81047,0.80827
2518.32831,0.80827
2517.84615,0.80826
2517.36399,0.80828
2516.88182,0.80832
2516.39966,0.80834
2515.9175,0.80835
2515.43534,0.80838
2514.95318,0.80844
2514.47102,0.8085
2513.98886,0.80851
2513.5067,0.80848
2513.02453,0.80843
2512.54237,0.80842
2512.06021,0.80847
2511.57805,0.80856
2511.09589,0.80859
2510.61373,0.80857
2510.13157,0.80856
2509.64941,0.80857
2509.16724,0.8086
2508.68508,0.80865
2508.20292,0.80868
2507.72076,0.80871
2507.2386,0.80872
2506.75644,0.8087
2506.27428,0.80868
2505.79212,0.8087
2505.30995,0.80874
2504.82779,0.80877
2504.34563,0.80879
2503.86347,0.80881
2503.38131,0.80882
2502.89915,0.80882
2502.41699,0.80885
2501.93482,0.80886
2501.45266,0.80884
2500.9705,0.80884
2500.48834,0.80887
2500.00618,0.80892
2499.52402,0.80898
2499.04186,0.80902
2498.5597,0.80901
2498.07753,0.809
2497.59537,0.80902
2497.11321,0.80907
2496.63105,0.8091
2496.14889,0.80911
2495.66673,0.80913
2495.18457,0.80913
2494.70241,0.80914
2494.22024,0.80916
2493.73808,0.80916
2493.25592,0.80918
2492.77376,0.80923
2492.2916,0.80926
2491.80944,0.8093
2491.32728,0.80934
2490.84512,0.80936
2490.36295,0.80932
2489.88079,0.80926
2489.39863,0.80925
2488.91647,0.80929
2488.43431,0.80935
2487.95215,0.80938
2487.46999,0.80941
2486.98783,0.80946
2486.50566,0.8095
2486.0235,0.80953
2485.54134,0.80955
2485.05918,0.80957
2484.57702,0.80959
2484.09486,0.80962
2483.6127,0.80965
2483.13054,0.8097
2482.64837,0.80975
2482.16621,0.80977
2481.68405,0.80975
2481.20189,0.80973
2480.71973,0.80973
2480.23757,0.80976
2479.75541,0.80981
2479.27325,0.80988
2478.79108,0.80991
2478.30892,0.80989
2477.82676,0.80988
2477.3446,0.80992
2476.86244,0.80998
2476.38028,0.81004
2475.89812,0.81004
2475.41596,0.81002
2474.93379,0.81002
2474.45163,0.81005
2473.96947,0.81009
2473.48731,0.81013
2473.00515,0.81016
2472.52299,0.81017
2472.04083,0.81019
2471.55866,0.81024
2471.0765,0.81025
2470.59434,0.81024
2470.11218,0.81023
2469.63002,0.81024
2469.14786,0.81028
2468.6657,0.81034
2468.18354,0.81037
2467.70137,0.81038
2467.21921,0.81038
2466.73705,0.81039
2466.25489,0.81044
2465.77273,0.81049
2465.29057,0.81053
2464.80841,0.81054
2464.32625,0.81052
2463.84408,0.81052
2463.36192,0.81058
2462.87976,0.81063
2462.3976,0.81064
2461.91544,0.8106
2461.43328,0.81059
2460.95112,0.81063
2460.46896,0.8107
2459.98679,0.81076
2459.50463,0.81081
2459.02247,0.81082
2458.54031,0.81078
2458.05815,0.81076
2457.57599,0.81073
2457.09383,0.81072
2456.61167,0.81074
2456.1295,0.81083
2455.64734,0.81092
2455.16518,0.81097
2454.68302,0.81098
2454.20086,0.811
2453.7187,0.81103
2453.23654,0.81105
2452.75438,0.81105
2452.27221,0.81103
2451.79005,0.81103
2451.30789,0.8111
2450.82573,0.81115
2450.34357,0.81114
2449.86141,0.81113
2449.37925,0.81116
2448.89709,0.81116
2448.41492,0.81114
2447.93276,0.81115
2447.4506,0.81119
2446.96844,0.81122
2446.48628,0.81124
2446.00412,0.81126
2445.52196,0.81128
2445.0398,0.81127
2444.55763,0.81127
2444.07547,0.81129
2443.59331,0.81132
2443.11115,0.81134
2442.62899,0.81135
2442.14683,0.81137
2441.66467,0.81139
2441.18251,0.81142
2440.70034,0.81143
2440.21818,0.81143
2439.73602,0.81144
2439.25386,0.81148
2438.7717,0.81152
2438.28954,0.81153
2437.80738,0.81152
2437.32521,0.8115
2436.84305,0.81149
2436.36089,0.81153
2435.87873,0.81157
2435.39657,0.8116
2434.91441,0.81164
2434.43225,0.81167
2433.95009,0.81168
2433.46792,0.81165
2432.98576,0.81163
2432.5036,0.81167
2432.02144,0.81174
2431.53928,0.81176
2431.05712,0.81176
2430.57496,0.81178
2430.0928,0.81182
2429.61063,0.81184
2429.12847,0.81181
2428.64631,0.81177
2428.16415,0.81175
2427.68199,0.81178
2427.19983,0.81184
2426.71767,0.81189
2426.23551,0.81192
2425.75334,0.81191
2425.27118,0.81188
2424.78902,0.81188
2424.30686,0.81192
2423.8247,0.81197
2423.34254,0.812
2422.86038,0.812
2422.37822,0.81197
2421.89605,0.81193
2421.41389,0.81194
2420.93173,0.81198
2420.44957,0.812
2419.96741,0.812
2419.48525,0.812
2419.00309,0.81201
2418.52093,0.81203
2418.03876,0.81204
2417.5566,0.81208
2417.07444,0.81213
2416.59228,0.81217
2416.11012,0.81221
2415.62796,0.81224
2415.1458,0.81225
2414.66364,0.8122
2414.18147,0.81216
2413.69931,0.81216
2413.21715,0.81218
2412.73499,0.81218
2412.25283,0.81219
2411.77067,0.81223
2411.28851,0.81224
2410.80635,0.81224
2410.32418,0.81224
2409.84202,0.81225
2409.35986,0.81226
2408.8777,0.81225
2408.39554,0.81223
2407.91338,0.81223
2407.43122,0.81224
2406.94905,0.81224
2406.46689,0.81224
2405.98473,0.81225
2405.50257,0.81226
2405.02041,0.81227
2404.53825,0.81227
2404.05609,0.81226
2403.57393,0.81226
2403.09176,0.81227
2402.6096,0.81225
2402.12744,0.81223
2401.64528,0.81223
2401.16312,0.81227
2400.68096,0.81227
2400.1988,0.81224
2399.71664,0.81225
2399.23447,0.8123
2398.75231,0.81237
2398.27015,0.81238
2397.78799,0.81232
2397.30583,0.81223
2396.82367,0.8122
2396.34151,0.81219
2395.85935,0.81215
2395.37718,0.81211
2394.89502,0.81206
2394.41286,0.81198
2393.9307,0.81183
2393.44854,0.81165
2392.96638,0.8114
2392.48422,0.81104
2392.00206,0.81054
2391.51989,0.8098
2391.03773,0.80871
2390.55557,0.8071
2390.07341,0.80489
2389.59125,0.80181
2389.10909,0.79769
2388.62693,0.79228
2388.14477,0.78532
2387.6626,0.77647
2387.18044,0.76536
2386.69828,0.75179
2386.21612,0.73557
2385.73396,0.71666
2385.2518,0.69496
2384.76964,0.67062
2384.28748,0.64403
2383.80531,0.61556
2383.32315,0.58577
2382.84099,0.55504
2382.35883,0.52395
2381.87667,0.49279
2381.39451,0.46193
2380.91235,0.43153
2380.43019,0.40171
2379.94802,0.37262
2379.46586,0.34418
2378.9837,0.31672
2378.50154,0.29011
2378.01938,0.2647
2377.53722,0.2404
2377.05506,0.21737
2376.57289,0.19583
2376.09073,0.1755
2375.60857,0.15692
2375.12641,0.13948
2374.64425,0.1237
2374.16209,0.10926
2373.67993,0.09607
2373.19777,0.08448
2372.7156,0.07369
2372.23344,0.06459
2371.75128,0.05618
2371.26912,0.04898
2370.78696,0.04286
2370.3048,0.03694
2369.82264,0.03242
2369.34048,0.02802
2368.85831,0.02456
2368.37615,0.02146
2367.89399,0.01845
2367.41183,0.01666
2366.92967,0.01451
2366.44751,0.01287
2365.96535,0.01135
2365.48319,0.00991
2365.00102,0.00938
2364.51886,0.00842
2364.0367,0.00749
2363.55454,0.00677
2363.07238,0.00612
2362.59022,0.0063
2362.10806,0.00646
2361.6259,0.00604
2361.14373,0.00582
2360.66157,0.0052
2360.17941,0.00484
2359.69725,0.00552
2359.21509,0.00589
2358.73293,0.00661
2358.25077,0.00727
2357.76861,0.00664
2357.28644,0.00674
2356.80428,0.0078
2356.32212,0.00866
2355.83996,0.01176
2355.3578,0.01543
2354.87564,0.01679
2354.39348,0.0196
2353.91132,0.02225
2353.42915,0.02181
2352.94699,0.02619
2352.46483,0.03506
2351.98267,0.03981
2351.50051,0.05021
2351.01835,0.06901
2350.53619,0.07831
2350.05403,0.08841
2349.57186,0.11849
2349.0897,0.14603
2348.60754,0.14062
2348.12538,0.10748
2347.64322,0.07891
2347.16106,0.06946
2346.6789,0.06028
2346.19674,0.04636
2345.71457,0.04197
2345.23241,0.04023
2344.75025,0.03208
2344.26809,0.02822
2343.78593,0.0287
2343.30377,0.02433
2342.82161,0.02079
2342.33944,0.02344
2341.85728,0.02401
2341.37512,0.02071
2340.89296,0.02321
2340.4108,0.02862
2339.92864,0.02703
2339.44648,0.0258
2338.96432,0.03191
2338.48215,0.03332
2337.99999,0.02779
2337.51783,0.02822
2337.03567,0.03159
2336.55351,0.02761
2336.07135,0.0257
2335.58919,0.03502
2335.10703,0.04069
2334.62486,0.03419
2334.1427,0.03091
2333.66054,0.03866
2333.17838,0.04048
2332.69622,0.03348
2332.21406,0.0363
2331.7319,0.04591
2331.24974,0.04305
2330.76757,0.03654
2330.28541,0.04426
2329.80325,0.0505
2329.32109,0.04264
2328.83893,0.03888
2328.35677,0.04976
2327.87461,0.05534
2327.39245,0.04769
2326.91028,0.04577
2326.42812,0.0607
2325.94596,0.07148
2325.4638,0.06287
2324.98164,0.05711
2324.49948,0.07492
2324.01732,0.08762
2323.53516,0.07491
2323.05299,0.0727
2322.57083,0.10086
2322.08867,0.11176
2321.60651,0.09046
2321.12435,0.09093
2320.64219,0.12529
2320.16003,0.13419
2319.67787,0.11118
2319.1957,0.1162
2318.71354,0.15508
2318.23138,0.1679
2317.74922,0.14708
2317.26706,0.1468
2316.7849,0.18326
2316.30274,0.20748
2315.82058,0.19356
2315.33841,0.179
2314.85625,0.20583
2314.37409,0.24198
2313.89193,0.23145
2313.40977,0.19778
2312.92761,0.21371
2312.44545,0.26322
2311.96328,0.26271
2311.48112,0.21771
2310.99896,0.21946
2310.5168,0.27929
2310.03464,0.30431
2309.55248,0.26527
2309.07032,0.24743
2308.58816,0.29939
2308.10599,0.3493
2307.62383,0.33329
2307.14167,0.30378
2306.65951,0.33392
2306.17735,0.39223
2305.69519,0.40642
2305.21303,0.38417
2304.73087,0.39243
2304.2487,0.43783
2303.76654,0.46125
2303.28438,0.43737
2302.80222,0.411
2302.32006,0.43469
2301.8379,0.47771
2301.35574,0.47541
2300.87358,0.44149
2300.39141,0.43853
2299.90925,0.4863
2299.42709,0.52873
2298.94493,0.5132
2298.46277,0.48519
2297.98061,0.50055
2297.49845,0.5362
2297.01629,0.54817
2296.53412,0.52421
2296.05196,0.51393
2295.5698,0.55341
2295.08764,0.58509
2294.60548,0.57363
2294.12332,0.55557
2293.64116,0.56089
2293.159,0.59376
2292.67683,0.62199
2292.19467,0.6124
2291.71251,0.60276
2291.23035,0.62589
2290.74819,0.64701
2290.26603,0.65187
2289.78387,0.65095
2289.30171,0.64791
2288.81954,0.66307
2288.33738,0.68962
2287.85522,0.69437
2287.37306,0.68874
2286.8909,0.70085
2286.40874,0.71908
2285.92658,0.72973
2285.44442,0.73801
2284.96225,0.74343
2284.48009,0.74996
2283.99793,0.76225
2283.51577,0.77213
2283.03361,0.77054
2282.55145,0.75962
2282.06929,0.75421
2281.58712,0.75777
2281.10496,0.75377
2280.6228,0.74187
2280.14064,0.74053
2279.65848,0.74191
2279.17632,0.73177
2278.69416,0.72919
2278.212,0.7365
2277.72983,0.72795
2277.24767,0.71646
2276.76551,0.72652
2276.28335,0.731
2275.80119,0.7149
2275.31903,0.71427
2274.83687,0.72855
2274.35471,0.72073
2273.87254,0.7085
2273.39038,0.72243
2272.90822,0.72959
2272.42606,0.71116
2271.9439,0.70964
2271.46174,0.729
2270.97958,0.72445
2270.49742,0.70739
2270.01525,0.71914
2269.53309,0.73404
2269.05093,0.71872
2268.56877,0.70945
2268.08661,0.72883
2267.60445,0.7343
2267.12229,0.71488
2266.64013,0.71605
2266.15796,0.73755
2265.6758,0.7342
2265.19364,0.71614
2264.71148,0.72576
2264.22932,0.74485
2263.74716,0.73534
2263.265,0.72164
2262.78284,0.73657
2262.30067,0.75154
2261.81851,0.73901
2261.33635,0.72999
2260.85419,0.74702
2260.37203,0.75792
2259.88987,0.74462
2259.40771,0.73922
2258.92555,0.75628
2258.44338,0.76431
2257.96122,0.75134
2257.47906,0.74782
2256.9969,0.76391
2256.51474,0.77071
2256.03258,0.75921
2255.55042,0.75651
2255.06826,0.77094
2254.58609,0.77737
2254.10393,0.76768
2253.62177,0.76483
2253.13961,0.77714
2252.65745,0.78383
2252.17529,0.77622
2251.69313,0.77272
2251.21097,0.78253
2250.7288,0.78964
2250.24664,0.78431
2249.76448,0.78012
2249.28232,0.78723
2248.80016,0.79458
2248.318,0.79168
2247.83584,0.78714
2247.35367,0.79152
2246.87151,0.79858
2246.38935,0.7979
2245.90719,0.79342
2245.42503,0.79521
2244.94287,0.80142
2244.46071,0.8027
2243.97855,0.79901
2243.49638,0.79873
2243.01422,0.80348
2242.53206,0.80618
2242.0499,0.80397
2241.56774,0.80245
2241.08558,0.8053
2240.60342,0.80844
2240.12126,0.80777
2239.63909,0.8059
2239.15693,0.80702
2238.67477,0.8099
2238.19261,0.81059
2237.71045,0.80913
2237.22829,0.80892
2236.74613,0.81082
2236.26397,0.81221
2235.7818,0.81162
2235.29964,0.81089
2234.81748,0.81177
2234.33532,0.81321
2233.85316,0.81342
2233.371,0.81271
2232.88884,0.81269
2232.40668,0.81368
2231.92451,0.8144
2231.44235,0.81418
2230.96019,0.81382
2230.47803,0.81418
2229.99587,0.81491
2229.51371,0.81514
2229.03155,0.81486
2228.54939,0.81478
2228.06722,0.81522
2227.58506,0.81565
2227.1029,0.81569
2226.62074,0.81555
2226.13858,0.81565
2225.65642,0.81595
2225.17426,0.81614
2224.6921,0.81611
2224.20993,0.81605
2223.72777,0.81616
2223.24561,0.81636
2222.76345,0.81647
2222.28129,0.81645
2221.79913,0.81642
2221.31697,0.81648
2220.83481,0.81656
2220.35264,0.8166
2219.87048,0.8166
2219.38832,0.81665
2218.90616,0.81674
2218.424,0.81681
2217.94184,0.81682
2217.45968,0.81679
2216.97751,0.8168
2216.49535,0.81684
2216.01319,0.81687
2215.53103,0.81689
2215.04887,0.81689
2214.56671,0.8169
2214.08455,0.81694
2213.60239,0.81698
2213.12022,0.81702
2212.63806,0.81705
2212.1559,0.81706
2211.67374,0.81705
2211.19158,0.81704
2210.70942,0.81705
2210.22726,0.81706
2209.7451,0.81707
2209.26293,0.81714
2208.78077,0.81721
2208.29861,0.81722
2207.81645,0.8172
2207.33429,0.81721
2206.85213,0.81723
2206.36997,0.81725
2205.88781,0.81726
2205.40564,0.81723
2204.92348,0.81722
2204.44132,0.81726
2203.95916,0.81733
2203.477,0.81737
2202.99484,0.81738
2202.51268,0.81738
2202.03052,0.81738
2201.54835,0.81739
2201.06619,0.81738
2200.58403,0.81738
2200.10187,0.81739
2199.61971,0.8174
2199.13755,0.8174
2198.65539,0.81741
2198.17323,0.81746
2197.69106,0.81751
2197.2089,0.81753
2196.72674,0.81752
2196.24458,0.8175
2195.76242,0.81752
2195.28026,0.81755
2194.7981,0.81757
2194.31594,0.81759
2193.83377,0.81762
2193.35161,0.81763
2192.86945,0.81764
2192.38729,0.81766
2191.90513,0.81768
2191.42297,0.81768
2190.94081,0.81769
2190.45865,0.81772
2189.97648,0.81775
2189.49432,0.81779
2189.01216,0.81782
2188.53,0.81781
2188.04784,0.81777
2187.56568,0.81773
2187.08352,0.81772
2186.60135,0.81774
2186.11919,0.81778
2185.63703,0.81783
2185.15487,0.81788
2184.67271,0.81787
2184.19055,0.81783
2183.70839,0.8178
2183.22623,0.81782
2182.74406,0.81787
2182.2619,0.8179
2181.77974,0.8179
2181.29758,0.81791
2180.81542,0.81792
2180.33326,0.81794
2179.8511,0.81798
2179.36894,0.818
2178.88677,0.81799
2178.40461,0.81799
2177.92245,0.81803
2177.44029,0.81807
2176.95813,0.81806
2176.47597,0.81803
2175.99381,0.81804
2175.51165,0.8181
2175.02948,0.81812
2174.54732,0.81811
2174.06516,0.81808
2173.583,0.81807
2173.10084,0.81809
2172.61868,0.81813
2172.13652,0.81814
2171.65436,0.81818
2171.17219,0.81823
2170.69003,0.81827
2170.20787,0.81829
2169.72571,0.81827
2169.24355,0.81824
2168.76139,0.81823
2168.27923,0.81828
2167.79707,0.81833
2167.3149,0.81834
2166.83274,0.81834
2166.35058,0.81833
2165.86842,0.81831
2165.38626,0.81831
2164.9041,0.81834
2164.42194,0.81839
2163.93978,0.81841
2163.45761,0.8184
2162.97545,0.81839
2162.49329,0.81837
2162.01113,0.81835
2161.52897,0.81836
2161.04681,0.81841
2160.56465,0.81848
2160.08249,0.81852
2159.60032,0.81851
2159.11816,0.81851
2158.636,0.81853
2158.15384,0.81855
2157.67168,0.81859
2157.18952,0.81861
2156.70736,0.81862
2156.2252,0.81862
2155.74303,0.81864
2155.26087,0.81867
2154.77871,0.81867
2154.29655,0.81866
2153.81439,0.81867
2153.33223,0.81869
2152.85007,0.81869
2152.3679,0.81868
2151.88574,0.8187
2151.40358,0.81871
2150.92142,0.81871
2150.43926,0.8187
2149.9571,0.81872
2149.47494,0.81877
2148.99278,0.81879
2148.51061,0.81876
2148.02845,0.81875
2147.54629,0.81877
2147.06413,0.81882
2146.58197,0.81885
2146.09981,0.81885
2145.61765,0.81884
2145.13549,0.81888
2144.65332,0.81895
2144.17116,0.81899
2143.689,0.819
2143.20684,0.81901
2142.72468,0.81902
2142.24252,0.81904
2141.76036,0.81907
2141.2782,0.81909
2140.79603,0.81906
2140.31387,0.819
2139.83171,0.81897
2139.34955,0.819
2138.86739,0.81906
2138.38523,0.81913
2137.90307,0.81917
2137.42091,0.81915
2136.93874,0.81902
2136.45658,0.81888
2135.97442,0.8189
2135.49226,0.81904
2135.0101,0.81916
2134.52794,0.81923
2134.04578,0.81929
2133.56362,0.81932
2133.08145,0.81933
2132.59929,0.81935
2132.11713,0.81935
2131.63497,0.81934
2131.15281,0.81936
2130.67065,0.81931
2130.18849,0.81914
2129.70633,0.81901
2129.22416,0.81908
2128.742,0.81927
2128.25984,0.81942
2127.77768,0.8195
2127.29552,0.81953
2126.81336,0.81953
2126.3312,0.81955
2125.84904,0.81957
2125.36687,0.81957
2124.88471,0.81956
2124.40255,0.81958
2123.92039,0.81961
2123.43823,0.81963
2122.95607,0.81962
2122.47391,0.81961
2121.99174,0.8196
2121.50958,0.81959
2121.02742,0.81964
2120.54526,0.81969
2120.0631,0.81972
2119.58094,0.81973
2119.09878,0.81976
2118.61662,0.8198
2118.13445,0.81984
2117.65229,0.81986
2117.17013,0.81984
2116.68797,0.81982
2116.20581,0.81978
2115.72365,0.81964
2115.24149,0.8195
2114.75933,0.81952
2114.27716,0.81968
2113.795,0.81983
2113.31284,0.81992
2112.83068,0.81997
2112.34852,0.81997
2111.86636,0.81998
2111.3842,0.82002
2110.90204,0.82006
2110.41987,0.82008
2109.93771,0.82009
2109.45555,0.82008
2108.97339,0.82007
2108.49123,0.82007
2108.00907,0.82007
2107.52691,0.82009
2107.04475,0.82014
2106.56258,0.82017
2106.08042,0.82016
2105.59826,0.82018
2105.1161,0.82022
2104.63394,0.82026
2104.15178,0.82029
2103.66962,0.8203
2103.18746,0.8203
2102.70529,0.8203
2102.22313,0.82034
2101.74097,0.82038
2101.25881,0.82039
2100.77665,0.82041
2100.29449,0.82047
2099.81233,0.82051
2099.33017,0.82051
2098.848,0.82048
2098.36584,0.82048
2097.88368,0.82049
2097.40152,0.82051
2096.91936,0.82053
2096.4372,0.82057
2095.95504,0.82061
2095.47288,0.8206
2094.99071,0.82052
2094.50855,0.82036
2094.02639,0.82014
2093.54423,0.82009
2093.06207,0.82035
2092.57991,0.82064
2092.09775,0.82078
2091.61558,0.82078
2091.13342,0.82053
2090.65126,0.82
2090.1691,0.81969
2089.68694,0.81999
2089.20478,0.82047
2088.72262,0.82073
2088.24046,0.82076
2087.75829,0.82068
2087.27613,0.82068
2086.79397,0.82079
2086.31181,0.82087
2085.82965,0.82087
2085.34749,0.82088
2084.86533,0.82092
2084.38317,0.82092
2083.901,0.82093
2083.41884,0.82099
2082.93668,0.82103
2082.45452,0.82103
2081.97236,0.82105
2081.4902,0.82108
2081.00804,0.8211
2080.52588,0.82112
2080.04371,0.82106
2079.56155,0.8208
2079.07939,0.82031
2078.59723,0.81938
2078.11507,0.81762
2077.63291,0.81566
2077.15075,0.81549
2076.66859,0.81757
2076.18642,0.81987
2075.70426,0.82096
2075.2221,0.8212
2074.73994,0.82115
2074.25778,0.82114
2073.77562,0.82123
2073.29346,0.82131
2072.8113,0.82129
2072.32913,0.82125
2071.84697,0.82126
2071.36481,0.82129
2070.88265,0.82131
2070.40049,0.82135
2069.91833,0.82134
2069.43617,0.82127
2068.95401,0.82127
2068.47184,0.82131
2067.98968,0.82125
2067.50752,0.82123
2067.02536,0.82119
2066.5432,0.82084
2066.06104,0.8202
2065.57888,0.81934
2065.09672,0.81864
2064.61455,0.819
2064.13239,0.82022
2063.65023,0.82101
2063.16807,0.82117
2062.68591,0.82129
2062.20375,0.82141
2061.72159,0.82128
2061.23943,0.8211
2060.75726,0.82105
2060.2751,0.82104
2059.79294,0.82119
2059.31078,0.82146
2058.82862,0.8215
2058.34646,0.82143
2057.8643,0.82155
2057.38213,0.82161
2056.89997,0.82152
2056.41781,0.82159
2055.93565,0.82169
2055.45349,0.82168
2054.97133,0.82179
2054.48917,0.82189
2054.00701,0.82184
2053.52484,0.82188
2053.04268,0.82198
2052.56052,0.82193
2052.07836,0.82192
2051.5962,0.82205
2051.11404,0.82209
2050.63188,0.8221
2050.14972,0.82221
2049.66755,0.82224
2049.18539,0.82222
2048.70323,0.82231
2048.22107,0.8224
2047.73891,0.82241
2047.25675,0.82242
2046.77459,0.82244
2046.29243,0.82247
2045.81026,0.82258
2045.3281,0.82267
2044.84594,0.82254
2044.36378,0.82236
2043.88162,0.82243
2043.39946,0.82266
2042.9173,0.82279
2042.43514,0.82244
2041.95297,0.82141
2041.47081,0.8207
2040.98865,0.82126
2040.50649,0.82233
2040.02433,0.82293
2039.54217,0.82314
2039.06001,0.82322
2038.57785,0.82323
2038.09568,0.82323
2037.61352,0.82323
2037.13136,0.82327
2036.6492,0.82338
2036.16704,0.82346
2035.68488,0.82349
2035.20272,0.82352
2034.72056,0.82353
2034.23839,0.82353
2033.75623,0.82359
2033.27407,0.8237
2032.79191,0.82377
2032.30975,0.8238
2031.82759,0.82381
2031.34543,0.82383
2030.86327,0.82387
2030.3811,0.82391
2029.89894,0.82394
2029.41678,0.82396
2028.93462,0.82396
2028.45246,0.82397
2027.9703,0.82398
2027.48814,0.82394
2027.00597,0.82386
2026.52381,0.82388
2026.04165,0.82402
2025.55949,0.82416
2025.07733,0.82422
2024.59517,0.82422
2024.11301,0.82418
2023.63085,0.82406
2023.14868,0.82396
2022.66652,0.82407
2022.18436,0.82425
2021.7022,0.82436
2021.22004,0.82442
2020.73788,0.82446
2020.25572,0.82438
2019.77356,0.82406
2019.29139,0.8235
2018.80923,0.82297
2018.32707,0.82284
2017.84491,0.82227
2017.36275,0.82038
2016.88059,0.81924
2016.39843,0.82076
2015.91627,0.82309
2015.4341,0.82433
2014.95194,0.82473
2014.46978,0.82484
2013.98762,0.82488
2013.50546,0.82492
2013.0233,0.82498
2012.54114,0.82502
2012.05898,0.82504
2011.57681,0.82507
2011.09465,0.8251
2010.61249,0.8251
2010.13033,0.82502
2009.64817,0.82492
2009.16601,0.82492
2008.68385,0.82497
2008.20169,0.82489
2007.71952,0.82487
2007.23736,0.82504
2006.7552,0.82526
2006.27304,0.82537
2005.79088,0.82539
2005.30872,0.82542
2004.82656,0.82546
2004.3444,0.8255
2003.86223,0.82555
2003.38007,0.8256
2002.89791,0.82563
2002.41575,0.82563
2001.93359,0.82564
2001.45143,0.82565
2000.96927,0.82564
2000.48711,0.82564
2000.00494,0.82556
1999.52278,0.82531
1999.04062,0.82515
1998.55846,0.82536
1998.0763,0.8257
1997.59414,0.82587
1997.11198,0.82592
1996.62981,0.82596
1996.14765,0.826
1995.66549,0.826
1995.18333,0.826
1994.70117,0.82596
1994.21901,0.8258
1993.73685,0.82521
1993.25469,0.82346
1992.77252,0.81938
1992.29036,0.81465
1991.8082,0.81452
1991.32604,0.81937
1990.84388,0.82385
1990.36172,0.82566
1989.87956,0.82599
1989.3974,0.82531
1988.91523,0.82378
1988.43307,0.82297
1987.95091,0.82394
1987.46875,0.82539
1986.98659,0.82617
1986.50443,0.82645
1986.02227,0.82657
1985.54011,0.82664
1985.05794,0.82667
1984.57578,0.82669
1984.09362,0.8267
1983.61146,0.82674
1983.1293,0.82679
1982.64714,0.82684
1982.16498,0.82687
1981.68282,0.82689
1981.20065,0.82692
1980.71849,0.82697
1980.23633,0.82703
1979.75417,0.82708
1979.27201,0.82709
1978.78985,0.82708
1978.30769,0.82706
1977.82553,0.82708
1977.34336,0.8271
1976.8612,0.82711
1976.37904,0.82714
1975.89688,0.82719
1975.41472,0.82725
1974.93256,0.8273
1974.4504,0.82735
1973.96824,0.82738
1973.48607,0.82741
1973.00391,0.82745
1972.52175,0.82747
1972.03959,0.82748
1971.55743,0.8275
1971.07527,0.82752
1970.59311,0.82752
1970.11095,0.82751
1969.62878,0.82749
1969.14662,0.82737
1968.66446,0.82638
1968.1823,0.82329
1967.70014,0.81982
1967.21798,0.81953
1966.73582,0.82167
1966.25366,0.82377
1965.77149,0.82561
1965.28933,0.827
1964.80717,0.82762
1964.32501,0.82781
1963.84285,0.82788
1963.36069,0.82795
1962.87853,0.82798
1962.39636,0.82786
1961.9142,0.82752
1961.43204,0.82721
1960.94988,0.82733
1960.46772,0.82774
1959.98556,0.82803
1959.5034,0.82814
1959.02124,0.8282
1958.53907,0.82823
1958.05691,0.82822
1957.57475,0.82823
1957.09259,0.82827
1956.61043,0.82822
1956.12827,0.82795
1955.64611,0.82734
1955.16395,0.82688
1954.68178,0.82721
1954.19962,0.82794
1953.71746,0.82839
1953.2353,0.82852
1952.75314,0.82853
1952.27098,0.82855
1951.78882,0.82862
1951.30666,0.82869
1950.82449,0.82871
1950.34233,0.82872
1949.86017,0.8287
1949.37801,0.82867
1948.89585,0.8287
1948.41369,0.82877
1947.93153,0.82877
1947.44937,0.82835
1946.9672,0.82732
1946.48504,0.82625
1946.00288,0.82575
1945.52072,0.82593
1945.03856,0.82682
1944.5564,0.82785
1944.07424,0.82755
1943.59208,0.82285
1943.10991,0.81314
1942.62775,0.80748
1942.14559,0.81277
1941.66343,0.82166
1941.18127,0.8268
1940.69911,0.82861
1940.21695,0.82913
1939.73479,0.82928
1939.25262,0.82938
1938.77046,0.82945
1938.2883,0.82945
1937.80614,0.82947
1937.32398,0.82952
1936.84182,0.82958
1936.35966,0.82965
1935.8775,0.82972
1935.39533,0.82974
1934.91317,0.8297
1934.43101,0.82958
1933.94885,0.82919
1933.46669,0.82869
1932.98453,0.82862
1932.50237,0.82907
1932.0202,0.82962
1931.53804,0.82994
1931.05588,0.83007
1930.57372,0.83011
1930.09156,0.83013
1929.6094,0.83014
1929.12724,0.83015
1928.64508,0.83017
1928.16291,0.83018
1927.68075,0.83021
1927.19859,0.83026
1926.71643,0.83031
1926.23427,0.83032
1925.75211,0.83031
1925.26995,0.83024
1924.78779,0.82995
1924.30562,0.82801
1923.82346,0.82272
1923.3413,0.81695
1922.85914,0.81598
1922.37698,0.8199
1921.89482,0.82495
1921.41266,0.82846
1920.9305,0.82993
1920.44833,0.83026
1919.96617,0.83012
1919.48401,0.82859
1919.00185,0.82071
1918.51969,0.80543
1918.03753,0.79796
1917.55537,0.80811
1917.07321,0.82185
1916.59104,0.82851
1916.10888,0.8303
1915.62672,0.83065
1915.14456,0.83076
1914.6624,0.83084
1914.18024,0.83091
1913.69808,0.83102
1913.21592,0.8311
1912.73375,0.83113
1912.25159,0.83112
1911.76943,0.83105
1911.28727,0.8303
1910.80511,0.82753
1910.32295,0.82374
1909.84079,0.82322
1909.35863,0.82626
1908.87646,0.82811
1908.3943,0.8273
1907.91214,0.82693
1907.42998,0.82859
1906.94782,0.83047
1906.46566,0.83137
1905.9835,0.83163
1905.50134,0.83151
1905.01917,0.8311
1904.53701,0.83076
1904.05485,0.83095
1903.57269,0.83143
1903.09053,0.83179
1902.60837,0.83187
1902.12621,0.83178
1901.64404,0.8318
1901.16188,0.83195
1900.67972,0.8321
1900.19756,0.83218
1899.7154,0.83221
1899.23324,0.83221
1898.75108,0.83222
1898.26892,0.83222
1897.78675,0.83219
1897.30459,0.83219
1896.82243,0.83203
1896.34027,0.8306
1895.85811,0.82674
1895.37595,0.82334
1894.89379,0.82459
1894.41163,0.82855
1893.92946,0.83115
1893.4473,0.83201
1892.96514,0.83228
1892.48298,0.83238
1892.00082,0.8324
1891.51866,0.83225
1891.0365,0.83104
1890.55434,0.82504
1890.07217,0.81361
1889.59001,0.80791
1889.10785,0.81524
1888.62569,0.82565
1888.14353,0.83091
1887.66137,0.83244
1887.17921,0.83282
1886.69705,0.83293
1886.21488,0.83283
1885.73272,0.83234
1885.25056,0.8314
1884.7684,0.83076
1884.28624,0.83124
1883.80408,0.83233
1883.32192,0.83307
1882.83976,0.83333
1882.35759,0.8334
1881.87543,0.8334
1881.39327,0.8334
1880.91111,0.83343
1880.42895,0.83338
1879.94679,0.83315
1879.46463,0.83298
1878.98247,0.83313
1878.5003,0.83344
1878.01814,0.83363
1877.53598,0.83362
1877.05382,0.83356
1876.57166,0.83356
1876.0895,0.83366
1875.60734,0.83377
1875.12518,0.83383
1874.64301,0.83382
1874.16085,0.8338
1873.67869,0.83381
1873.19653,0.83382
1872.71437,0.83378
1872.23221,0.83356
1871.75005,0.83272
1871.26789,0.83114
1870.78572,0.82841
1870.30356,0.81893
1869.8214,0.8009
1869.33924,0.79132
1868.85708,0.79877
1868.37492,0.80667
1867.89276,0.81076
1867.41059,0.8172
1866.92843,0.82213
1866.44627,0.82428
1865.96411,0.82767
1865.48195,0.83149
1864.99979,0.83341
1864.51763,0.83389
1864.03547,0.83401
1863.5533,0.83419
1863.07114,0.8344
1862.58898,0.83429
1862.10682,0.8337
1861.62466,0.83312
1861.1425,0.83321
1860.66034,0.83374
1860.17818,0.83409
1859.69601,0.83402
1859.21385,0.8334
1858.73169,0.83282
1858.24953,0.83312
1857.76737,0.83403
1857.28521,0.83464
1856.80305,0.83481
1856.32089,0.83488
1855.83872,0.83498
1855.35656,0.8351
1854.8744,0.83511
1854.39224,0.83509
1853.91008,0.83511
1853.42792,0.83512
1852.94576,0.83503
1852.4636,0.83493
1851.98143,0.83503
1851.49927,0.83517
1851.01711,0.83524
1850.53495,0.83522
1850.05279,0.83511
1849.57063,0.8347
1849.08847,0.8333
1848.60631,0.82946
1848.12414,0.82459
1847.64198,0.8242
1847.15982,0.82855
1846.67766,0.83182
1846.1955,0.83138
1845.71334,0.82658
1845.23118,0.80917
1844.74902,0.77577
1844.26685,0.75749
1843.78469,0.78018
1843.30253,0.81134
1842.82037,0.82594
1842.33821,0.82944
1841.85605,0.83127
1841.37389,0.83358
1840.89173,0.83503
1840.40956,0.83551
1839.9274,0.83562
1839.44524,0.83562
1838.96308,0.83557
1838.48092,0.83489
1837.99876,0.83232
1837.5166,0.82893
1837.03443,0.82868
1836.55227,0.83172
1836.07011,0.83442
1835.58795,0.83546
1835.10579,0.83569
1834.62363,0.83567
1834.14147,0.83509
1833.65931,0.83411
1833.17714,0.83388
1832.69498,0.83466
1832.21282,0.83515
1831.73066,0.834
1831.2485,0.82633
1830.76634,0.80697
1830.28418,0.78777
1829.80202,0.7871
1829.31985,0.80042
1828.83769,0.81554
1828.35553,0.82734
1827.87337,0.83338
1827.39121,0.83516
1826.90905,0.83485
1826.42689,0.82961
1825.94473,0.814
1825.46256,0.79739
1824.9804,0.80052
1824.49824,0.81816
1824.01608,0.83062
1823.53392,0.83403
1823.05176,0.8338
1822.5696,0.834
1822.08744,0.83522
1821.60527,0.83624
1821.12311,0.83672
1820.64095,0.83698
1820.15879,0.83711
1819.67663,0.83717
1819.19447,0.8372
1818.71231,0.83669
1818.23015,0.83457
1817.74798,0.83191
1817.26582,0.832
1816.78366,0.83459
1816.3015,0.83655
1815.81934,0.83715
1815.33718,0.83723
1814.85502,0.83727
1814.37286,0.83731
1813.89069,0.83726
1813.40853,0.83648
1812.92637,0.83427
1812.44421,0.83212
1811.96205,0.83099
1811.47989,0.82638
1810.99773,0.818
1810.51557,0.81662
1810.0334,0.82492
1809.55124,0.83292
1809.06908,0.83577
1808.58692,0.83478
1808.10476,0.83228
1807.6226,0.83177
1807.14044,0.83416
1806.65827,0.83652
1806.17611,0.83714
1805.69395,0.83665
1805.21179,0.83624
1804.72963,0.83658
1804.24747,0.83706
1803.76531,0.83606
1803.28315,0.83075
1802.80098,0.82293
1802.31882,0.81904
1801.83666,0.81915
1801.3545,0.82133
1800.87234,0.82403
1800.39018,0.81894
1799.90802,0.80814
1799.42586,0.80886
1798.94369,0.82176
1798.46153,0.83222
1797.97937,0.8358
1797.49721,0.83554
1797.01505,0.83255
1796.53289,0.82754
1796.05073,0.82465
1795.56857,0.827
1795.0864,0.83147
1794.60424,0.83383
1794.12208,0.83086
1793.63992,0.81385
1793.15776,0.78113
1792.6756,0.764
1792.19344,0.78262
1791.71128,0.80137
1791.22911,0.80404
1790.74695,0.80934
1790.26479,0.8225
1789.78263,0.83234
1789.30047,0.83605
1788.81831,0.83694
1788.33615,0.83724
1787.85399,0.8377
1787.37182,0.83808
1786.88966,0.83815
1786.4075,0.83723
1785.92534,0.8313
1785.44318,0.819
1784.96102,0.81256
1784.47886,0.82042
1783.9967,0.8313
1783.51453,0.83649
1783.03237,0.8377
1782.55021,0.83731
1782.06805,0.83536
1781.58589,0.82843
1781.10373,0.81701
1780.62157,0.81313
1780.13941,0.82141
1779.65724,0.82999
1779.17508,0.83335
1778.69292,0.83521
1778.21076,0.83705
1777.7286,0.83804
1777.24644,0.83785
1776.76428,0.83478
1776.28212,0.82686
1775.79995,0.82
1775.31779,0.82245
1774.83563,0.82967
1774.35347,0.83174
1773.87131,0.82033
1773.38915,0.78809
1772.90699,0.75415
1772.42482,0.75568
1771.94266,0.77238
1771.4605,0.78086
1770.97834,0.7963
1770.49618,0.81806
1770.01402,0.8313
1769.53186,0.83291
1769.0497,0.82026
1768.56753,0.79769
1768.08537,0.79147
1767.60321,0.81025
1767.12105,0.82911
1766.63889,0.83686
1766.15673,0.8387
1765.67457,0.83894
1765.19241,0.83895
1764.71024,0.83883
1764.22808,0.83858
1763.74592,0.83793
1763.26376,0.83442
1762.7816,0.81942
1762.29944,0.79194
1761.81728,0.77922
1761.33512,0.79832
1760.85295,0.82276
1760.37079,0.8346
1759.88863,0.83788
1759.40647,0.8376
1758.92431,0.83609
1758.44215,0.835
1757.95999,0.83027
1757.47783,0.81476
1756.99566,0.79918
1756.5135,0.8047
1756.03134,0.82312
1755.54918,0.83501
1755.06702,0.83868
1754.58486,0.83933
1754.1027,0.8391
1753.62054,0.83801
1753.13837,0.83595
1752.65621,0.8298
1752.17405,0.80923
1751.69189,0.77501
1751.20973,0.76272
1750.72757,0.78798
1750.24541,0.81284
1749.76325,0.81531
1749.28108,0.80312
1748.79892,0.79552
1748.31676,0.80179
1747.8346,0.81012
1747.35244,0.8132
1746.87028,0.81762
1746.38812,0.8241
1745.90596,0.82841
1745.42379,0.83063
1744.94163,0.8305
1744.45947,0.82651
1743.97731,0.81772
1743.49515,0.80968
1743.01299,0.81246
1742.53083,0.82405
1742.04866,0.83319
1741.5665,0.83522
1741.08434,0.82762
1740.60218,0.8028
1740.12002,0.77188
1739.63786,0.77205
1739.1557,0.80139
1738.67354,0.8242
1738.19137,0.83131
1737.70921,0.83214
1737.22705,0.83332
1736.74489,0.83443
1736.26273,0.83189
1735.78057,0.81682
1735.29841,0.77581
1734.81625,0.72226
1734.33408,0.70374
1733.85192,0.71911
1733.36976,0.74763
1732.8876,0.78581
1732.40544,0.81471
1731.92328,0.82784
1731.44112,0.83141
1730.95896,0.8251
1730.47679,0.81109
1729.99463,0.80551
1729.51247,0.81656
1729.03031,0.83042
1728.54815,0.83714
1728.06599,0.83888
1727.58383,0.83913
1727.10167,0.83915
1726.6195,0.83921
1726.13734,0.83954
1725.65518,0.83982
1725.17302,0.83978
1724.69086,0.8382
1724.2087,0.83331
1723.72654,0.82801
1723.24438,0.82865
1722.76221,0.83397
1722.28005,0.83742
1721.79789,0.83804
1721.31573,0.83799
1720.83357,0.83792
1720.35141,0.83638
1719.86925,0.82717
1719.38709,0.80101
1718.90492,0.76718
1718.42276,0.74707
1717.9406,0.73393
1717.45844,0.73382
1716.97628,0.76772
1716.49412,0.80135
1716.01196,0.80417
1715.5298,0.78559
1715.04763,0.77741
1714.56547,0.78849
1714.08331,0.80349
1713.60115,0.81788
1713.11899,0.82932
1712.63683,0.83513
1712.15467,0.83753
1711.6725,0.838
1711.19034,0.83501
1710.70818,0.8284
1710.22602,0.82483
1709.74386,0.8289
1709.2617,0.83491
1708.77954,0.83753
1708.29738,0.8366
1707.81521,0.83149
1707.33305,0.81781
1706.85089,0.79594
1706.36873,0.78553
1705.88657,0.79828
1705.40441,0.80765
1704.92225,0.79741
1704.44009,0.79117
1703.95792,0.806
1703.47576,0.82315
1702.9936,0.82954
1702.51144,0.82827
1702.02928,0.81541
1701.54712,0.77528
1701.06496,0.70092
1700.5828,0.62835
1700.10063,0.63444
1699.61847,0.71095
1699.13631,0.77843
1698.65415,0.81037
1698.17199,0.8159
1697.68983,0.81086
1697.20767,0.80148
1696.72551,0.77305
1696.24334,0.7178
1695.76118,0.69367
1695.27902,0.7412
1694.79686,0.79426
1694.3147,0.82131
1693.83254,0.83055
1693.35038,0.83326
1692.86822,0.83409
1692.38605,0.83432
1691.90389,0.83427
1691.42173,0.83257
1690.93957,0.8257
1690.45741,0.81636
1689.97525,0.81464
1689.49309,0.8192
1689.01093,0.81809
1688.52876,0.81309
1688.0466,0.81516
1687.56444,0.82249
1687.08228,0.82643
1686.60012,0.82359
1686.11796,0.80897
1685.6358,0.77148
1685.15364,0.71285
1684.67147,0.67979
1684.18931,0.69395
1683.70715,0.71603
1683.22499,0.7426
1682.74283,0.77912
1682.26067,0.80849
1681.77851,0.82039
1681.29635,0.81809
1680.81418,0.80832
1680.33202,0.80193
1679.84986,0.80606
1679.3677,0.8159
1678.88554,0.82326
1678.40338,0.82582
1677.92122,0.82575
1677.43905,0.82468
1676.95689,0.82093
1676.47473,0.80431
1675.99257,0.76283
1675.51041,0.71929
1675.02825,0.72982
1674.54609,0.77635
1674.06393,0.80734
1673.58176,0.81761
1673.0996,0.81807
1672.61744,0.81096
1672.13528,0.79349
1671.65312,0.77787
1671.17096,0.78243
1670.6888,0.79241
1670.20664,0.77756
1669.72447,0.74051
1669.24231,0.72691
1668.76015,0.75276
1668.27799,0.78267
1667.79583,0.80122
1667.31367,0.81066
1666.83151,0.81387
1666.34935,0.81422
1665.86718,0.81376
1665.38502,0.813
1664.90286,0.8118
1664.4207,0.809
1663.93854,0.79809
1663.45638,0.77184
1662.97422,0.74757
1662.49206,0.75558
1662.00989,0.78082
1661.52773,0.79604
1661.04557,0.80168
1660.56341,0.80422
1660.08125,0.80508
1659.59909,0.80476
1659.11693,0.80401
1658.63477,0.80306
1658.1526,0.80171
1657.67044,0.79982
1657.18828,0.7977
1656.70612,0.7958
1656.22396,0.79316
1655.7418,0.78404
1655.25964,0.75823
1654.77748,0.71994
1654.29531,0.68676
1653.81315,0.64984
1653.33099,0.59844
1652.84883,0.57967
1652.36667,0.63384
1651.88451,0.70881
1651.40235,0.75657
1650.92019,0.77677
1650.43802,0.78288
1649.95586,0.78342
1649.4737,0.77813
1648.99154,0.76237
1648.50938,0.7398
1648.02722,0.72291
1647.54506,0.71969
1647.06289,0.72079
1646.58073,0.70555
1646.09857,0.68802
1645.61641,0.70933
1645.13425,0.74784
1644.65209,0.76979
1644.16993,0.77694
1643.68777,0.77835
1643.2056,0.77752
1642.72344,0.77583
1642.24128,0.77524
1641.75912,0.7759
1641.27696,0.77568
1640.7948,0.77379
1640.31264,0.77237
1639.83048,0.77272
1639.34831,0.77292
1638.86615,0.76963
1638.38399,0.75829
1637.90183,0.74181
1637.41967,0.73542
1636.93751,0.73675
1636.45535,0.71772
1635.97319,0.66933
1635.49102,0.63767
1635.00886,0.66658
1634.5267,0.71735
1634.04454,0.75132
1633.56238,0.76535
1633.08022,0.76943
1632.59806,0.77058
1632.1159,0.771
1631.63373,0.77119
1631.15157,0.77134
1630.66941,0.77141
1630.18725,0.77131
1629.70509,0.77071
1629.22293,0.76803
1628.74077,0.75786
1628.25861,0.74067
1627.77644,0.73444
1627.29428,0.74759
1626.81212,0.76274
1626.32996,0.76918
1625.8478,0.77038
1625.36564,0.76971
1624.88348,0.76445
1624.40132,0.74554
1623.91915,0.71666
1623.43699,0.70822
1622.95483,0.72898
1622.47267,0.75192
1621.99051,0.76481
1621.50835,0.7703
1621.02619,0.77207
1620.54403,0.77296
1620.06186,0.77377
1619.5797,0.77418
1619.09754,0.77383
1618.61538,0.77182
1618.13322,0.76342
1617.65106,0.73706
1617.1689,0.69037
1616.68673,0.66863
1616.20457,0.70548
1615.72241,0.74787
1615.24025,0.76898
1614.75809,0.77657
1614.27593,0.77945
1613.79377,0.78095
1613.31161,0.78199
1612.82944,0.78287
1612.34728,0.78362
1611.86512,0.78437
1611.38296,0.785
1610.9008,0.78502
1610.41864,0.78269
1609.93648,0.7778
1609.45432,0.77569
1608.97215,0.77978
1608.48999,0.78492
1608.00783,0.78579
1607.52567,0.78378
1607.04351,0.78367
1606.56135,0.78681
1606.07919,0.79022
1605.59703,0.79206
1605.11486,0.79291
1604.6327,0.79311
1604.15054,0.79199
1603.66838,0.78975
1603.18622,0.78909
1602.70406,0.79128
1602.2219,0.79361
1601.73974,0.79399
1601.25757,0.79404
1600.77541,0.79556
1600.29325,0.79756
1599.81109,0.79881
1599.32893,0.79946
1598.84677,0.79994
1598.36461,0.80038
1597.88245,0.80075
1597.40028,0.80076
1596.91812,0.79993
1596.43596,0.7991
1595.9538,0.79954
1595.47164,0.79956
1594.98948,0.79741
1594.50732,0.79626
1594.02516,0.79892
1593.54299,0.80252
1593.06083,0.8043
1592.57867,0.80444
1592.09651,0.80398
1591.61435,0.80407
1591.13219,0.80483
1590.65003,0.80515
1590.16787,0.80476
1589.6857,0.80498
1589.20354,0.8062
1588.72138,0.80745
1588.23922,0.80817
1587.75706,0.80857
1587.2749,0.80887
1586.79274,0.80912
1586.31058,0.80944
1585.82841,0.80972
1585.34625,0.80997
1584.86409,0.81019
1584.38193,0.81037
1583.89977,0.81045
1583.41761,0.81043
1582.93545,0.81049
1582.45328,0.81071
1581.97112,0.81108
1581.48896,0.81139
1581.0068,0.81154
1580.52464,0.81158
1580.04248,0.81146
1579.56032,0.81116
1579.07816,0.81046
1578.59599,0.8086
1578.11383,0.80425
1577.63167,0.79422
1577.14951,0.76799
1576.66735,0.71968
1576.18519,0.69193
1575.70303,0.72859
1575.22087,0.77557
1574.7387,0.79972
1574.25654,0.80832
1573.77438,0.81108
1573.29222,0.81208
1572.81006,0.81266
1572.3279,0.81307
1571.84574,0.81287
1571.36358,0.81033
1570.88141,0.79774
1570.39925,0.7665
1569.91709,0.73386
1569.43493,0.73539
1568.95277,0.76424
1568.47061,0.79157
1567.98845,0.80731
1567.50629,0.81342
1567.02412,0.81485
1566.54196,0.81446
1566.0598,0.81031
1565.57764,0.79808
1565.09548,0.78496
1564.61332,0.78735
1564.13116,0.80149
1563.649,0.81139
1563.16683,0.81423
1562.68467,0.81403
1562.20251,0.812
1561.72035,0.80476
1561.23819,0.78081
1560.75603,0.72634
1560.27387,0.66189
1559.79171,0.65018
1559.30954,0.66517
1558.82738,0.65635
1558.34522,0.6429
1557.86306,0.66133
1557.3809,0.71071
1556.89874,0.76413
1556.41658,0.79591
1555.93442,0.80512
1555.45225,0.79576
1554.97009,0.76475
1554.48793,0.73552
1554.00577,0.74994
1553.52361,0.78632
1553.04145,0.80794
1552.55929,0.81484
1552.07712,0.81649
1551.59496,0.81553
1551.1128,0.80765
1550.63064,0.79069
1550.14848,0.77744
1549.66632,0.78291
1549.18416,0.79999
1548.702,0.81288
1548.21983,0.81786
1547.73767,0.81896
1547.25551,0.81874
1546.77335,0.81634
1546.29119,0.80516
1545.80903,0.77847
1545.32687,0.75346
1544.84471,0.75985
1544.36254,0.78012
1543.88038,0.78577
1543.39822,0.77856
1542.91606,0.75543
1542.4339,0.71624
1541.95174,0.70764
1541.46958,0.73521
1540.98742,0.73661
1540.50525,0.70516
1540.02309,0.68128
1539.54093,0.6699
1539.05877,0.6758
1538.57661,0.7206
1538.09445,0.77067
1537.61229,0.80033
1537.13013,0.81278
1536.64796,0.81627
1536.1658,0.81561
1535.68364,0.81335
1535.20148,0.80841
1534.71932,0.79048
1534.23716,0.75667
1533.755,0.73312
1533.27284,0.74542
1532.79067,0.77627
1532.30851,0.79649
1531.82635,0.8024
1531.34419,0.80757
1530.86203,0.81542
1530.37987,0.8201
1529.89771,0.81964
1529.41555,0.812
1528.93338,0.79949
1528.45122,0.79221
1527.96906,0.78971
1527.4869,0.78799
1527.00474,0.79321
1526.52258,0.79453
1526.04042,0.77463
1525.55826,0.75377
1525.07609,0.76502
1524.59393,0.79164
1524.11177,0.80488
1523.62961,0.79597
1523.14745,0.76933
1522.66529,0.74847
1522.18313,0.73935
1521.70097,0.71888
1521.2188,0.70295
1520.73664,0.71789
1520.25448,0.74585
1519.77232,0.7771
1519.29016,0.80259
1518.808,0.80967
1518.32584,0.79367
1517.84367,0.7615
1517.36151,0.73901
1516.87935,0.74521
1516.39719,0.76921
1515.91503,0.78935
1515.43287,0.79477
1514.95071,0.79664
1514.46855,0.8065
1513.98638,0.81643
1513.50422,0.81597
1513.02206,0.80072
1512.5399,0.78127
1512.05774,0.78266
1511.57558,0.80097
1511.09342,0.81076
1510.61126,0.80466
1510.12909,0.79132
1509.64693,0.78206
1509.16477,0.77452
1508.68261,0.76348
1508.20045,0.74962
1507.71829,0.71953
1507.23613,0.67844
1506.75397,0.67124
1506.2718,0.68316
1505.78964,0.69082
1505.30748,0.72655
1504.82532,0.77672
1504.34316,0.80649
1503.861,0.8173
1503.37884,0.82046
1502.89668,0.82023
1502.41451,0.81697
1501.93235,0.81406
1501.45019,0.81532
1500.96803,0.81829
1500.48587,0.81893
1500.00371,0.81241
1499.52155,0.79102
1499.03939,0.76621
1498.55722,0.76959
1498.07506,0.79423
1497.5929,0.80576
1497.11074,0.78853
1496.62858,0.75175
1496.14642,0.7413
1495.66426,0.77403
1495.1821,0.80548
1494.69993,0.81849
1494.21777,0.82194
1493.73561,0.8228
1493.25345,0.82295
1492.77129,0.82263
1492.28913,0.82032
1491.80697,0.80957
1491.32481,0.78685
1490.84264,0.76526
1490.36048,0.75747
1489.87832,0.7608
1489.39616,0.77469
1488.914,0.79403
1488.43184,0.80245
1487.94968,0.79104
1487.46751,0.77703
1486.98535,0.78441
1486.50319,0.80272
1486.02103,0.81438
1485.53887,0.81983
1485.05671,0.8224
1484.57455,0.82325
1484.09239,0.82343
1483.61022,0.82352
1483.12806,0.82346
1482.6459,0.82262
1482.16374,0.81896
1481.68158,0.81271
1481.19942,0.8104
1480.71726,0.81492
1480.2351,0.82034
1479.75293,0.82262
1479.27077,0.82305
1478.78861,0.82292
1478.30645,0.82239
1477.82429,0.82047
1477.34213,0.81086
1476.85997,0.78773
1476.37781,0.76814
1475.89564,0.77761
1475.41348,0.80076
1474.93132,0.81018
1474.44916,0.79704
1473.967,0.76591
1473.48484,0.74595
1473.00268,0.74809
1472.52052,0.74061
1472.03835,0.7335
1471.55619,0.75923
1471.07403,0.79412
1470.59187,0.81264
1470.10971,0.81845
1469.62755,0.81988
1469.14539,0.82034
1468.66323,0.82041
1468.18106,0.82016
1467.6989,0.81975
1467.21674,0.81931
1466.73458,0.81836
1466.25242,0.81321
1465.77026,0.79396
1465.2881,0.76224
1464.80594,0.75276
1464.32377,0.77892
1463.84161,0.80538
1463.35945,0.81613
1462.87729,0.81874
1462.39513,0.81935
1461.91297,0.81945
1461.43081,0.81926
1460.94865,0.81861
1460.46648,0.81524
1459.98432,0.80473
1459.50216,0.78776
1459.02,0.76902
1458.53784,0.75365
1458.05568,0.74465
1457.57352,0.72184
1457.09135,0.67849
1456.60919,0.68128
1456.12703,0.73549
1455.64487,0.77239
1455.16271,0.7881
1454.68055,0.80055
1454.19839,0.81088
1453.71623,0.816
1453.23406,0.81649
1452.7519,0.81237
1452.26974,0.80752
1451.78758,0.80866
1451.30542,0.81413
1450.82326,0.81767
1450.3411,0.81845
1449.85894,0.8182
1449.37677,0.81612
1448.89461,0.80633
1448.41245,0.78723
1447.93029,0.7777
1447.44813,0.79066
1446.96597,0.80751
1446.48381,0.81494
1446.00165,0.81686
1445.51948,0.81743
1445.03732,0.8177
1444.55516,0.81805
1444.073,0.81832
1443.59084,0.81833
1443.10868,0.81822
1442.62652,0.81809
1442.14436,0.81792
1441.66219,0.81769
1441.18003,0.81753
1440.69787,0.81746
1440.21571,0.81733
1439.73355,0.81708
1439.25139,0.81657
1438.76923,0.8154
1438.28707,0.81073
1437.8049,0.79083
1437.32274,0.74472
1436.84058,0.70535
1436.35842,0.72736
1435.87626,0.77444
1435.3941,0.80176
1434.91194,0.81169
1434.42978,0.81415
1433.94761,0.81273
1433.46545,0.81039
1432.98329,0.81045
1432.50113,0.81218
1432.01897,0.81325
1431.53681,0.81345
1431.05465,0.80944
1430.57249,0.79653
1430.09032,0.78433
1429.60816,0.78905
1429.126,0.80298
1428.64384,0.81074
1428.16168,0.81286
1427.67952,0.81403
1427.19736,0.81484
1426.7152,0.81498
1426.23303,0.81482
1425.75087,0.81441
1425.26871,0.81205
1424.78655,0.8039
1424.30439,0.79178
1423.82223,0.78815
1423.34007,0.79723
1422.8579,0.80764
1422.37574,0.81207
1421.89358,0.81259
1421.41142,0.81167
1420.92926,0.80759
1420.4471,0.78986
1419.96494,0.74825
1419.48278,0.71189
1419.00061,0.73003
1418.51845,0.76984
1418.03629,0.78685
1417.55413,0.78769
1417.07197,0.79224
1416.58981,0.79955
1416.10765,0.80355
1415.62549,0.80679
1415.14332,0.80975
1414.66116,0.81101
1414.179,0.81132
1413.69684,0.81136
1413.21468,0.81105
1412.73252,0.80991
1412.25036,0.80798
1411.7682,0.80687
1411.28603,0.80774
1410.80387,0.80884
1410.32171,0.80864
1409.83955,0.80851
1409.35739,0.80937
1408.87523,0.81021
1408.39307,0.81044
1407.91091,0.81042
1407.42874,0.81024
1406.94658,0.80987
1406.46442,0.80863
1405.98226,0.80255
1405.5001,0.78958
1405.01794,0.78163
1404.53578,0.78935
1404.05362,0.80154
1403.57145,0.80732
1403.08929,0.80868
1402.60713,0.80896
1402.12497,0.80894
1401.64281,0.80869
1401.16065,0.80817
1400.67849,0.80625
1400.19633,0.79723
1399.71416,0.77782
1399.232,0.76527
1398.74984,0.77464
1398.26768,0.78804
1397.78552,0.79376
1397.30336,0.7983
1396.8212,0.79977
1396.33904,0.79301
1395.85687,0.78473
1395.37471,0.77673
1394.89255,0.76279
1394.41039,0.75887
1393.92823,0.77762
1393.44607,0.79723
1392.96391,0.80497
1392.48174,0.80648
1391.99958,0.80657
1391.51742,0.80607
1391.03526,0.80549
1390.5531,0.80544
1390.07094,0.80573
1389.58878,0.80581
1389.10662,0.80488
1388.62445,0.79864
1388.14229,0.78149
1387.66013,0.76509
1387.17797,0.7696
1386.69581,0.78565
1386.21365,0.79662
1385.73149,0.80205
1385.24933,0.80445
1384.76716,0.80498
1384.285,0.80489
1383.80284,0.80471
1383.32068,0.80458
1382.83852,0.80441
1382.35636,0.80414
1381.8742,0.80396
1381.39204,0.8039
1380.90987,0.80358
1380.42771,0.80264
1379.94555,0.80141
1379.46339,0.80096
1378.98123,0.80067
1378.49907,0.79917
1378.01691,0.79827
1377.53475,0.79971
1377.05258,0.80143
1376.57042,0.80137
1376.08826,0.79802
1375.6061,0.79072
1375.12394,0.78459
1374.64178,0.78108
1374.15962,0.77561
1373.67746,0.77533
1373.19529,0.78561
1372.71313,0.7954
1372.23097,0.79895
1371.74881,0.79988
1371.26665,0.80027
1370.78449,0.80026
1370.30233,0.79989
1369.82017,0.79863
1369.338,0.79503
1368.85584,0.79096
1368.37368,0.7914
1367.89152,0.79557
1367.40936,0.7985
1366.9272,0.79916
1366.44504,0.79904
1365.96288,0.7988
1365.48071,0.79855
1364.99855,0.7981
1364.51639,0.79591
1364.03423,0.78715
1363.55207,0.77255
1363.06991,0.76647
1362.58775,0.77545
1362.10558,0.78472
1361.62342,0.78352
1361.14126,0.78009
1360.6591,0.78468
1360.17694,0.79223
1359.69478,0.7956
1359.21262,0.79589
1358.73046,0.79522
1358.24829,0.79448
1357.76613,0.79451
1357.28397,0.79507
1356.80181,0.79532
1356.31965,0.79503
1355.83749,0.79389
1355.35533,0.79174
1354.87317,0.79045
1354.391,0.79146
1353.90884,0.79312
1353.42668,0.79373
1352.94452,0.79359
1352.46236,0.79335
1351.9802,0.79316
1351.49804,0.79302
1351.01588,0.79282
1350.53371,0.7923
1350.05155,0.79109
1349.56939,0.78981
1349.08723,0.78976
1348.60507,0.79063
1348.12291,0.79121
1347.64075,0.79121
1347.15859,0.79099
1346.67642,0.79074
1346.19426,0.79048
1345.7121,0.79022
1345.22994,0.78995
1344.74778,0.78965
1344.26562,0.78935
1343.78346,0.78912
1343.3013,0.78893
1342.81913,0.78868
1342.33697,0.78838
1341.85481,0.78756
1341.37265,0.78398
1340.89049,0.77659
1340.40833,0.77091
1339.92617,0.77116
1339.44401,0.77245
1338.96184,0.77198
1338.47968,0.77389
1337.99752,0.77873
1337.51536,0.78081
1337.0332,0.77858
1336.55104,0.77779
1336.06888,0.78083
1335.58672,0.78371
1335.10455,0.78449
1334.62239,0.78438
1334.14023,0.78414
1333.65807,0.78388
1333.17591,0.78353
1332.69375,0.78316
1332.21159,0.78292
1331.72943,0.78274
1331.24726,0.78248
1330.7651,0.78204
1330.28294,0.78152
1329.80078,0.7812
1329.31862,0.7811
1328.83646,0.78094
1328.3543,0.78059
1327.87213,0.78016
1327.38997,0.77977
1326.90781,0.77946
1326.42565,0.77916
1325.94349,0.77884
1325.46133,0.77853
1324.97917,0.77824
1324.49701,0.7779
1324.01484,0.7774
1323.53268,0.7769
1323.05052,0.77665
1322.56836,0.77657
1322.0862,0.77633
1321.60404,0.77573
1321.12188,0.77474
1320.63972,0.77357
1320.15755,0.77236
1319.67539,0.77036
1319.19323,0.76807
1318.71107,0.76827
1318.22891,0.77058
1317.74675,0.7712
1317.26459,0.76983
1316.78243,0.76951
1316.30026,0.77076
1315.8181,0.77153
1315.33594,0.7709
1314.85378,0.76986
1314.37162,0.76919
1313.88946,0.76848
1313.4073,0.76751
1312.92514,0.76664
1312.44297,0.76667
1311.96081,0.76782
1311.47865,0.76885
1310.99649,0.76901
1310.51433,0.76875
1310.03217,0.76837
1309.55001,0.7679
1309.06785,0.76718
1308.58568,0.7662
1308.10352,0.76558
1307.62136,0.76564
1307.1392,0.76578
1306.65704,0.7655
1306.17488,0.76499
1305.69272,0.76452
1305.21056,0.76419
1304.72839,0.7639
1304.24623,0.76358
1303.76407,0.76322
1303.28191,0.76281
1302.79975,0.76241
1302.31759,0.762
1301.83543,0.7616
1301.35327,0.76123
1300.8711,0.76088
1300.38894,0.76049
1299.90678,0.76007
1299.42462,0.75969
1298.94246,0.75931
1298.4603,0.75887
1297.97814,0.75837
1297.49597,0.75772
1297.01381,0.75697
1296.53165,0.75646
1296.04949,0.75631
1295.56733,0.75615
1295.08517,0.75576
1294.60301,0.75527
1294.12085,0.7548
1293.63868,0.75436
1293.15652,0.75393
1292.67436,0.7535
1292.1922,0.75305
1291.71004,0.75253
1291.22788,0.75184
1290.74572,0.75112
1290.26356,0.75068
1289.78139,0.75041
1289.29923,0.74985
1288.81707,0.74897
1288.33491,0.74803
1287.85275,0.74728
1287.37059,0.74695
1286.88843,0.74704
1286.40627,0.74708
1285.9241,0.7468
1285.44194,0.74636
1284.95978,0.74585
1284.47762,0.74531
1283.99546,0.7448
1283.5133,0.74429
1283.03114,0.74376
1282.54898,0.74325
1282.06681,0.74279
1281.58465,0.74229
1281.10249,0.74171
1280.62033,0.74101
1280.13817,0.74031
1279.65601,0.73979
1279.17385,0.73938
1278.69169,0.7389
1278.20952,0.73831
1277.72736,0.73763
1277.2452,0.73695
1276.76304,0.73631
1276.28088,0.73564
1275.79872,0.73491
1275.31656,0.7342
1274.8344,0.73351
1274.35223,0.73278
1273.87007,0.73195
1273.38791,0.73105
1272.90575,0.7299
1272.42359,0.72821
1271.94143,0.72655
1271.45927,0.72583
1270.97711,0.72547
1270.49494,0.72439
1270.01278,0.72293
1269.53062,0.72177
1269.04846,0.72055
1268.5663,0.71895
1268.08414,0.71732
1267.60198,0.71573
1267.11981,0.71384
1266.63765,0.71164
1266.15549,0.70941
1265.67333,0.70723
1265.19117,0.70501
1264.70901,0.70265
1264.22685,0.70021
1263.74469,0.69786
1263.26252,0.69567
1262.78036,0.69362
1262.2982,0.69175
1261.81604,0.69007
1261.33388,0.6884
1260.85172,0.68664
1260.36956,0.68554
1259.8874,0.68569
1259.40523,0.6864
1258.92307,0.687
1258.44091,0.68763
1257.95875,0.68847
1257.47659,0.68948
1256.99443,0.69058
1256.51227,0.69176
1256.03011,0.69303
1255.54794,0.69435
1255.06578,0.6956
1254.58362,0.69667
1254.10146,0.69762
1253.6193,0.69851
1253.13714,0.69928
1252.65498,0.69988
1252.17282,0.70028
1251.69065,0.70055
1251.20849,0.7007
1250.72633,0.70074
1250.24417,0.7007
1249.76201,0.70059
1249.27985,0.7004
1248.79769,0.70014
1248.31553,0.69985
1247.83336,0.6995
1247.3512,0.69912
1246.86904,0.69876
1246.38688,0.6984
1245.90472,0.69799
1245.42256,0.69747
1244.9404,0.69679
1244.45824,0.69605
1243.97607,0.69554
1243.49391,0.69524
1243.01175,0.69488
1242.52959,0.6944
1242.04743,0.69389
1241.56527,0.69333
1241.08311,0.69271
1240.60095,0.69209
1240.11878,0.69149
1239.63662,0.69086
1239.15446,0.69023
1238.6723,0.68963
1238.19014,0.68903
1237.70798,0.68838
1237.22582,0.68769
1236.74366,0.68699
1236.26149,0.68632
1235.77933,0.68569
1235.29717,0.68504
1234.81501,0.68435
1234.33285,0.68361
1233.85069,0.68287
1233.36853,0.68216
1232.88636,0.68148
1232.4042,0.68079
1231.92204,0.68009
1231.43988,0.6794
1230.95772,0.67868
1230.47556,0.67795
1229.9934,0.67724
1229.51124,0.6765
1229.02907,0.67575
1228.54691,0.67497
1228.06475,0.67419
1227.58259,0.67343
1227.10043,0.67268
1226.61827,0.67189
1226.13611,0.671
1225.65395,0.67002
1225.17178,0.6691
1224.68962,0.66841
1224.20746,0.66781
1223.7253,0.66713
1223.24314,0.66638
1222.76098,0.66558
1222.27882,0.66475
1221.79666,0.66391
1221.31449,0.66306
1220.83233,0.6622
1220.35017,0.66136
1219.86801,0.66056
1219.38585,0.65971
1218.90369,0.6588
1218.42153,0.65792
1217.93937,0.65711
1217.4572,0.6563
1216.97504,0.65546
1216.49288,0.65457
1216.01072,0.65369
1215.52856,0.65285
1215.0464,0.65204
1214.56424,0.65122
1214.08208,0.65037
1213.59991,0.64948
1213.11775,0.6485
1212.63559,0.64743
1212.15343,0.64648
1211.67127,0.64575
1211.18911,0.64507
1210.70695,0.64431
1210.22479,0.64348
1209.74262,0.64262
1209.26046,0.64177
1208.7783,0.6409
1208.29614,0.63998
1207.81398,0.63904
1207.33182,0.63811
1206.84966,0.63719
1206.3675,0.63627
1205.88533,0.63537
1205.40317,0.63448
1204.92101,0.63357
1204.43885,0.63266
1203.95669,0.63175
1203.47453,0.6308
1202.99237,0.6298
1202.5102,0.62884
1202.02804,0.62793
1201.54588,0.62703
1201.06372,0.62609
1200.58156,0.62511
1200.0994,0.62411
1199.61724,0.6231
1199.13508,0.62208
1198.65291,0.62104
1198.17075,0.62005
1197.68859,0.61913
1197.20643,0.61824
1196.72427,0.61731
1196.24211,0.6163
1195.75995,0.61524
1195.27779,0.6142
1194.79562,0.6132
1194.31346,0.61223
1193.8313,0.61123
1193.34914,0.6102
1192.86698,0.60916
1192.38482,0.60813
1191.90266,0.60709
1191.4205,0.60605
1190.93833,0.60504
1190.45617,0.60402
1189.97401,0.60294
1189.49185,0.60186
1189.00969,0.60082
1188.52753,0.59974
1188.04537,0.59859
1187.56321,0.59737
1187.08104,0.5962
1186.59888,0.59524
1186.11672,0.59436
1185.63456,0.59338
1185.1524,0.59233
1184.67024,0.59126
1184.18808,0.59018
1183.70592,0.5891
1183.22375,0.588
1182.74159,0.58688
1182.25943,0.58576
1181.77727,0.58467
1181.29511,0.58357
1180.81295,0.58244
1180.33079,0.58126
1179.84863,0.58009
1179.36646,0.57898
1178.8843,0.57783
1178.40214,0.57664
1177.91998,0.5755
1177.43782,0.5744
1176.95566,0.57328
1176.4735,0.57215
1175.99134,0.57101
1175.50917,0.56977
1175.02701,0.56839
1174.54485,0.56707
1174.06269,0.56598
1173.58053,0.56494
1173.09837,0.56382
1172.61621,0.56268
1172.13404,0.56153
1171.65188,0.56033
1171.16972,0.55909
1170.68756,0.55785
1170.2054,0.55663
1169.72324,0.5554
1169.24108,0.5542
1168.75892,0.553
1168.27675,0.55178
1167.79459,0.55053
1167.31243,0.54931
1166.83027,0.5481
1166.34811,0.54686
1165.86595,0.54561
1165.38379,0.54438
1164.90163,0.54314
1164.41946,0.54184
1163.9373,0.54053
1163.45514,0.53926
1162.97298,0.53802
1162.49082,0.53675
1162.00866,0.53544
1161.5265,0.53412
1161.04434,0.53279
1160.56217,0.53148
1160.08001,0.53018
1159.59785,0.52889
1159.11569,0.52761
1158.63353,0.52632
1158.15137,0.52498
1157.66921,0.52361
1157.18705,0.52226
1156.70488,0.52091
1156.22272,0.51953
1155.74056,0.51817
1155.2584,0.51686
1154.77624,0.51555
1154.29408,0.51426
1153.81192,0.51296
1153.32976,0.5116
1152.84759,0.5102
1152.36543,0.50885
1151.88327,0.50754
1151.40111,0.50624
1150.91895,0.50491
1150.43679,0.50356
1149.95463,0.50218
1149.47247,0.50083
1148.9903,0.49952
1148.50814,0.49819
1148.02598,0.49681
1147.54382,0.49542
1147.06166,0.49403
1146.5795,0.49265
1146.09734,0.49128
1145.61518,0.48988
1145.13301,0.48851
1144.65085,0.48714
1144.16869,0.48572
1143.68653,0.48427
1143.20437,0.48282
1142.72221,0.48141
1142.24005,0.48005
1141.75789,0.47869
1141.27572,0.47729
1140.79356,0.47582
1140.3114,0.47435
1139.82924,0.47293
1139.34708,0.47152
1138.86492,0.47007
1138.38276,0.46859
1137.90059,0.46712
1137.41843,0.46561
1136.93627,0.46406
1136.45411,0.46248
1135.97195,0.46095
1135.48979,0.45949
1135.00763,0.45806
1134.52547,0.4566
1134.0433,0.45512
1133.56114,0.45365
1133.07898,0.45222
1132.59682,0.45075
1132.11466,0.4492
1131.6325,0.44763
1131.15034,0.44605
1130.66818,0.4445
1130.18601,0.443
1129.70385,0.44145
1129.22169,0.43983
1128.73953,0.43824
1128.25737,0.43671
1127.77521,0.43516
1127.29305,0.43356
1126.81089,0.43198
1126.32872,0.43041
1125.84656,0.42884
1125.3644,0.42725
1124.88224,0.42565
1124.40008,0.42404
1123.91792,0.42241
1123.43576,0.42079
1122.9536,0.41917
1122.47143,0.41751
1121.98927,0.41584
1121.50711,0.41418
1121.02495,0.41252
1120.54279,0.41084
1120.06063,0.40917
1119.57847,0.40755
1119.09631,0.40594
1118.61414,0.40425
1118.13198,0.40253
1117.64982,0.40085
1117.16766,0.39923
1116.6855,0.39763
1116.20334,0.396
1115.72118,0.39432
1115.23902,0.3926
1114.75685,0.39082
1114.27469,0.38904
1113.79253,0.38735
1113.31037,0.38574
1112.82821,0.3841
1112.34605,0.38239
1111.86389,0.38065
1111.38173,0.37893
1110.89956,0.37722
1110.4174,0.37549
1109.93524,0.37376
1109.45308,0.37207
1108.97092,0.37039
1108.48876,0.36866
1108.0066,0.36692
1107.52443,0.36521
1107.04227,0.36348
1106.56011,0.3617
1106.07795,0.35995
1105.59579,0.35821
1105.11363,0.35647
1104.63147,0.35479
1104.14931,0.35313
1103.66714,0.35144
1103.18498,0.34972
1102.70282,0.348
1102.22066,0.34629
1101.7385,0.34458
1101.25634,0.34287
1100.77418,0.3412
1100.29202,0.33956
1099.80985,0.3379
1099.32769,0.3362
1098.84553,0.33448
1098.36337,0.33281
1097.88121,0.3312
1097.39905,0.32958
1096.91689,0.3279
1096.43473,0.32625
1095.95256,0.32469
1095.4704,0.32316
1094.98824,0.32159
1094.50608,0.31998
1094.02392,0.31843
1093.54176,0.31693
1093.0596,0.31538
1092.57744,0.31384
1092.09527,0.31238
1091.61311,0.31092
1091.13095,0.3094
1090.64879,0.30791
1090.16663,0.30643
1089.68447,0.30491
1089.20231,0.30338
1088.72015,0.3019
1088.23798,0.30044
1087.75582,0.29894
1087.27366,0.29741
1086.7915,0.29589
1086.30934,0.29446
1085.82718,0.2931
1085.34502,0.29172
1084.86286,0.29028
1084.38069,0.28879
1083.89853,0.28728
1083.41637,0.28578
1082.93421,0.28433
1082.45205,0.28293
1081.96989,0.28148
1081.48773,0.28
1081.00557,0.27853
1080.5234,0.27707
1080.04124,0.27561
1079.55908,0.27415
1079.07692,0.27264
1078.59476,0.27113
1078.1126,0.26969
1077.63044,0.26831
1077.14827,0.2669
1076.66611,0.26544
1076.18395,0.264
1075.70179,0.26259
1075.21963,0.26119
1074.73747,0.25974
1074.25531,0.25825
1073.77315,0.25672
1073.29098,0.2552
1072.80882,0.25376
1072.32666,0.25234
1071.8445,0.25087
1071.36234,0.24937
1070.88018,0.24793
1070.39802,0.24651
1069.91586,0.24504
1069.43369,0.24355
1068.95153,0.24206
1068.46937,0.24058
1067.98721,0.23912
1067.50505,0.23768
1067.02289,0.2362
1066.54073,0.23467
1066.05857,0.23314
1065.5764,0.23167
1065.09424,0.23022
1064.61208,0.22875
1064.12992,0.22727
1063.64776,0.22581
1063.1656,0.22434
1062.68344,0.22282
1062.20128,0.22128
1061.71911,0.21981
1061.23695,0.21839
1060.75479,0.21694
1060.27263,0.21548
1059.79047,0.21399
1059.30831,0.21246
1058.82615,0.21096
1058.34399,0.20949
1057.86182,0.20801
1057.37966,0.20653
1056.8975,0.20508
1056.41534,0.2036
1055.93318,0.20209
1055.45102,0.20059
1054.96886,0.19914
1054.4867,0.19769
1054.00453,0.19623
1053.52237,0.19478
1053.04021,0.19333
1052.55805,0.19189
1052.07589,0.19044
1051.59373,0.18894
1051.11157,0.18744
1050.62941,0.186
1050.14724,0.18458
1049.66508,0.18311
1049.18292,0.18167
1048.70076,0.18031
1048.2186,0.17896
1047.73644,0.17753
1047.25428,0.17602
1046.77212,0.17458
1046.28995,0.17321
1045.80779,0.17179
1045.32563,0.17035
1044.84347,0.16898
1044.36131,0.16763
1043.87915,0.16623
1043.39699,0.16481
1042.91482,0.16342
1042.43266,0.16205
1041.9505,0.16067
1041.46834,0.15927
1040.98618,0.15791
1040.50402,0.15657
1040.02186,0.15516
1039.5397,0.15369
1039.05753,0.15229
1038.57537,0.15097
1038.09321,0.14964
1037.61105,0.1483
1037.12889,0.14696
1036.64673,0.14564
1036.16457,0.14431
1035.68241,0.14294
1035.20024,0.14158
1034.71808,0.14029
1034.23592,0.13904
1033.75376,0.13776
1033.2716,0.13644
1032.78944,0.13512
1032.30728,0.13383
1031.82512,0.13256
1031.34295,0.13135
1030.86079,0.13014
1030.37863,0.12889
1029.89647,0.12758
1029.41431,0.12625
1028.93215,0.12492
1028.44999,0.12363
1027.96783,0.12236
1027.48566,0.1211
1027.0035,0.11987
1026.52134,0.11872
1026.03918,0.11757
1025.55702,0.1163
1025.07486,0.11499
1024.5927,0.11377
1024.11054,0.11263
1023.62837,0.11147
1023.14621,0.11029
1022.66405,0.1091
1022.18189,0.10792
1021.69973,0.10678
1021.21757,0.10569
1020.73541,0.1046
1020.25325,0.10343
1019.77108,0.10223
1019.28892,0.10109
1018.80676,0.10005
1018.3246,0.09904
1017.84244,0.098
1017.36028,0.09698
1016.87812,0.096
1016.39596,0.09499
1015.91379,0.0939
1015.43163,0.09284
1014.94947,0.09185
1014.46731,0.09089
1013.98515,0.08992
1013.50299,0.08896
1013.02083,0.08803
1012.53866,0.0871
1012.0565,0.08623
1011.57434,0.0854
1011.09218,0.08452
1010.61002,0.08358
1010.12786,0.08264
1009.6457,0.08175
1009.16354,0.08093
1008.68137,0.08012
1008.19921,0.07927
1007.71705,0.07839
1007.23489,0.07752
1006.75273,0.07666
1006.27057,0.07581
1005.78841,0.07496
1005.30625,0.0741
1004.82408,0.07327
1004.34192,0.07247
1003.85976,0.07165
1003.3776,0.07076
1002.89544,0.06988
1002.41328,0.06908
1001.93112,0.06827
1001.44896,0.06739
1000.96679,0.06651
1000.48463,0.06569
1000.00247,0.06489
999.52031,0.06408
999.03815,0.06326
998.55599,0.06241
998.07383,0.06157
997.59167,0.06081
997.1095,0.06008
996.62734,0.0593
996.14518,0.05848
995.66302,0.05767
995.18086,0.05687
994.6987,0.05608
994.21654,0.05533
993.73438,0.05457
993.25221,0.05379
992.77005,0.05302
992.28789,0.05228
991.80573,0.05153
991.32357,0.05075
990.84141,0.04997
990.35925,0.04923
989.87709,0.04853
989.39492,0.04786
988.91276,0.04721
988.4306,0.04655
987.94844,0.04585
987.46628,0.04511
986.98412,0.04439
986.50196,0.04373
986.0198,0.04308
985.53763,0.04247
985.05547,0.04184
984.57331,0.04117
984.09115,0.0405
983.60899,0.03986
983.12683,0.0392
982.64467,0.03854
982.1625,0.03793
981.68034,0.03732
981.19818,0.0367
980.71602,0.03607
980.23386,0.03549
979.7517,0.03495
979.26954,0.03441
978.78738,0.03385
978.30521,0.03332
977.82305,0.03275
977.34089,0.03213
976.85873,0.03152
976.37657,0.03093
975.89441,0.03036
975.41225,0.0298
974.93009,0.02927
974.44792,0.02874
973.96576,0.02822
973.4836,0.02772
973.00144,0.02725
972.51928,0.02677
972.03712,0.02629
971.55496,0.02583
971.0728,0.02536
970.59063,0.02487
970.10847,0.02441
969.62631,0.02399
969.14415,0.02354
968.66199,0.02306
968.17983,0.02258
967.69767,0.02211
967.21551,0.0217
966.73334,0.02134
966.25118,0.02096
965.76902,0.02056
965.28686,0.02014
964.8047,0.01972
964.32254,0.01928
963.84038,0.01884
963.35822,0.01843
962.87605,0.01806
962.39389,0.0177
961.91173,0.01732
961.42957,0.01697
960.94741,0.01664
960.46525,0.01628
959.98309,0.01593
959.50093,0.01561
959.01876,0.01533
958.5366,0.01505
958.05444,0.01471
957.57228,0.01432
957.09012,0.01395
956.60796,0.01362
956.1258,0.01333
955.64364,0.01308
955.16147,0.01283
954.67931,0.01256
954.19715,0.01225
953.71499,0.01194
953.23283,0.01166
952.75067,0.01141
952.26851,0.01114
951.78635,0.01086
951.30418,0.01059
950.82202,0.01031
950.33986,0.01003
949.8577,0.00981
949.37554,0.00961
948.89338,0.00937
948.41122,0.0091
947.92905,0.00885
947.44689,0.00861
946.96473,0.0084
946.48257,0.00818
946.00041,0.00795
945.51825,0.00772
945.03609,0.00751
944.55393,0.00732
944.07176,0.00715
943.5896,0.00701
943.10744,0.00686
942.62528,0.00666
942.14312,0.00644
941.66096,0.00624
941.1788,0.00604
940.69664,0.00588
940.21447,0.00574
939.73231,0.0056
939.25015,0.00547
938.76799,0.0053
938.28583,0.00511
937.80367,0.00498
937.32151,0.00487
936.83935,0.00472
936.35718,0.00456
935.87502,0.00442
935.39286,0.00429
934.9107,0.00415
934.42854,0.00402
933.94638,0.00391
933.46422,0.00382
932.98206,0.00372
932.49989,0.00356
932.01773,0.00339
931.53557,0.00324
931.05341,0.00312
930.57125,0.00305
930.08909,0.00299
929.60693,0.00286
929.12477,0.00274
928.6426,0.00269
928.16044,0.00266
927.67828,0.00259
927.19612,0.00248
926.71396,0.00234
926.2318,0.00224
925.74964,0.00218
925.26748,0.00216
924.78531,0.00211
924.30315,0.00203
923.82099,0.00195
923.33883,0.00185
922.85667,0.00175
922.37451,0.00171
921.89235,0.00172
921.41019,0.00167
920.92802,0.00156
920.44586,0.00148
919.9637,0.00145
919.48154,0.0014
918.99938,0.0013
918.51722,0.0012
918.03506,0.00116
917.55289,0.00117
917.07073,0.00115
916.58857,0.00108
916.10641,0.00103
915.62425,0.00103
915.14209,0.001
914.65993,0.00091
914.17777,0.0008
913.6956,0.00072
913.21344,0.00069
912.73128,0.0007
912.24912,0.00069
911.76696,0.00066
911.2848,0.00062
910.80264,0.00057
910.32048,0.00055
909.83831,0.00053
909.35615,0.00048
908.87399,0.00041
908.39183,0.00037
907.90967,0.00038
907.42751,0.00039
906.94535,0.00036
906.46319,0.0003
905.98102,0.00028
905.49886,0.00032
905.0167,0.00035
904.53454,0.00031
904.05238,0.00028
903.57022,0.00028
903.08806,0.00025
902.6059,0.00017
902.12373,0.00011
901.64157,0.0001
901.15941,0.00009
900.67725,0.00009
900.19509,0.00008
899.71293,0.00009
899.23077,0.00014
898.74861,0.00018
898.26644,0.00017
897.78428,0.00015
897.30212,0.00013
896.81996,0.00007
896.3378,0.00004
895.85564,0.00008
895.37348,0.00015
894.89132,0.00014
894.40915,0.00006
893.92699,0.00002
893.44483,0.00002
892.96267,-0.00001
892.48051,-0.00003
891.99835,-0.00002
891.51619,0
891.03403,0.00004
890.55186,0.00009
890.0697,0.00015
889.58754,0.00016
889.10538,0.00016
888.62322,0.00017
888.14106,0.00015
887.6589,0.00008
887.17673,0.00004
886.69457,0.00009
886.21241,0.00015
885.73025,0.00014
885.24809,0.0001
884.76593,0.00012
884.28377,0.00014
883.80161,0.00011
883.31944,0.00009
882.83728,0.00012
882.35512,0.00012
881.87296,0.00012
881.3908,0.00014
880.90864,0.00018
880.42648,0.00019
879.94432,0.00018
879.46215,0.00017
878.97999,0.00021
878.49783,0.00023
878.01567,0.00021
877.53351,0.00017
877.05135,0.00014
876.56919,0.00014
876.08703,0.00017
875.60486,0.00021
875.1227,0.00027
874.64054,0.00032
874.15838,0.00031
873.67622,0.00027
873.19406,0.00028
872.7119,0.00033
872.22974,0.00039
871.74757,0.00042
871.26541,0.00041
870.78325,0.00038
870.30109,0.00039
869.81893,0.00043
869.33677,0.00044
868.85461,0.00042
868.37245,0.00035
867.89028,0.00026
867.40812,0.00021
866.92596,0.00022
866.4438,0.00023
865.96164,0.00025
865.47948,0.00026
864.99732,0.00025
864.51516,0.00025
864.03299,0.00025
863.55083,0.00022
863.06867,0.00019
862.58651,0.00022
862.10435,0.00026
861.62219,0.00027
861.14003,0.00028
860.65787,0.00026
860.1757,0.00022
859.69354,0.00019
859.21138,0.0002
858.72922,0.00023
858.24706,0.00026
857.7649,0.00028
857.28274,0.00026
856.80058,0.00025
856.31841,0.00029
855.83625,0.00031
855.35409,0.00032
854.87193,0.00034
854.38977,0.00033
853.90761,0.00032
853.42545,0.00033
852.94328,0.00037
852.46112,0.0004
851.97896,0.00038
851.4968,0.00035
851.01464,0.00035
850.53248,0.00036
850.05032,0.00036
849.56816,0.00031
849.08599,0.00022
848.60383,0.00018
848.12167,0.00021
847.63951,0.00027
847.15735,0.00028
846.67519,0.00021
846.19303,0.00016
845.71087,0.00021
845.2287,0.00034
844.74654,0.00045
844.26438,0.00051
843.78222,0.00051
843.30006,0.00046
842.8179,0.00042
842.33574,0.0004
841.85358,0.00037
841.37141,0.00032
840.88925,0.0003
840.40709,0.00035
839.92493,0.0004
839.44277,0.0004
838.96061,0.00037
838.47845,0.00029
837.99629,0.00019
837.51412,0.00017
837.03196,0.00023
836.5498,0.00026
836.06764,0.00025
835.58548,0.00027
835.10332,0.00033
834.62116,0.00034
834.139,0.00035
833.65683,0.0004
833.17467,0.00043
832.69251,0.00041
832.21035,0.00038
831.72819,0.00038
831.24603,0.00037
830.76387,0.00027
830.28171,0.00017
829.79954,0.00018
829.31738,0.00018
828.83522,0.00009
828.35306,0.00007
827.8709,0.00016
827.38874,0.00018
826.90658,0.00015
826.42442,0.0002
825.94225,0.00026
825.46009,0.00029
824.97793,0.00037
824.49577,0.00048
824.01361,0.00053
823.53145,0.0005
823.04929,0.00046
822.56712,0.00037
822.08496,0.00019
821.6028,0.00001
821.12064,-0.00004
820.63848,0.00001
820.15632,0.00015
819.67416,0.00025
819.192,0.00025
818.70983,0.00027
818.22767,0.00042
817.74551,0.00066
817.26335,0.00077
816.78119,0.00066
816.29903,0.00046
815.81687,0.00034
815.33471,0.00024
814.85254,0.00011
814.37038,0.00004
813.88822,0.00007
813.40606,0.00016
812.9239,0.0002
812.44174,0.0003
811.95958,0.00054
811.47742,0.00072
810.99525,0.00069
810.51309,0.00063
810.03093,0.00064
809.54877,0.00063
809.06661,0.00052
808.58445,0.00034
808.10229,0.00012
807.62013,-0.00006
807.13796,-0.00006
806.6558,0.00009
806.17364,0.00019
805.69148,0.00022
805.20932,0.00032
804.72716,0.0005
804.245,0.0006
803.76284,0.00063
803.28067,0.00067
802.79851,0.00069
802.31635,0.00064
801.83419,0.00051
801.35203,0.00034
800.86987,0.0002
800.38771,0.00013
799.90555,0.00011
799.42338,0.00008
798.94122,0.00002
798.45906,0.00001
797.9769,0.0001
797.49474,0.00024
797.01258,0.00035
796.53042,0.00039
796.04826,0.00036
795.56609,0.00033
795.08393,0.00036
794.60177,0.00045
794.11961,0.00052
793.63745,0.00049
793.15529,0.0004
792.67313,0.0003
792.19096,0.00023
791.7088,0.00019
791.22664,0.00015
790.74448,0.00014
790.26232,0.00019
789.78016,0.00024
789.298,0.00018
788.81584,0.00004
788.33367,-0.00005
787.85151,-0.00003
787.36935,0.00007
786.88719,0.00017
786.40503,0.00025
785.92287,0.00031
785.44071,0.00037
784.95855,0.00042
784.47638,0.00049
783.99422,0.0005
783.51206,0.00049
783.0299,0.00052
782.54774,0.00049
782.06558,0.0004
781.58342,0.00038
781.10126,0.00043
780.61909,0.00036
780.13693,0.00014
779.65477,-0.00006
779.17261,-0.00008
778.69045,0.00005
778.20829,0.00015
777.72613,0.00018
777.24397,0.0002
776.7618,0.0002
776.27964,0.00017
775.79748,0.00016
775.31532,0.00019
774.83316,0.00025
774.351,0.00027
773.86884,0.00026
773.38668,0.00033
772.90451,0.00039
772.42235,0.00035
771.94019,0.00033
771.45803,0.00031
770.97587,0.00028
770.49371,0.00028
770.01155,0.00034
769.52939,0.00042
769.04722,0.00046
768.56506,0.00042
768.0829,0.00031
767.60074,0.00025
767.11858,0.00026
766.63642,0.0003
766.15426,0.00033
765.6721,0.00031
765.18993,0.00028
764.70777,0.00028
764.22561,0.00025
763.74345,0.00023
763.26129,0.00025
762.77913,0.00027
762.29697,0.00028
761.81481,0.00028
761.33264,0.00028
760.85048,0.00028
760.36832,0.00032
759.88616,0.00037
759.404,0.00038
758.92184,0.00033
758.43968,0.00035
757.95751,0.00046
757.47535,0.00047
756.99319,0.00037
756.51103,0.00031
756.02887,0.00035
755.54671,0.00041
755.06455,0.00047
754.58239,0.00052
754.10022,0.0005
753.61806,0.00044
753.1359,0.00039
752.65374,0.00036
752.17158,0.00038
751.68942,0.00042
751.20726,0.00042
750.7251,0.00047
750.24293,0.00058
749.76077,0.0006
749.27861,0.00054
748.79645,0.00045
748.31429,0.00035
747.83213,0.00037
747.34997,0.00042
746.86781,0.00043
746.38564,0.00045
745.90348,0.00046
745.42132,0.00044
744.93916,0.00036
744.457,0.00032
743.97484,0.00037
743.49268,0.00042
743.01052,0.00041
742.52835,0.00036
742.04619,0.00035
741.56403,0.00034
741.08187,0.00034
740.59971,0.00032
740.11755,0.00026
739.63539,0.00019
739.15323,0.00014
738.67106,0.00011
738.1889,0.00011
737.70674,0.0001
737.22458,0.0001
736.74242,0.00012
736.26026,0.00007
735.7781,0.00001
735.29594,0.00004
734.81377,0.00011
734.33161,0.00015
733.84945,0.00015
733.36729,0.00018
732.88513,0.00023
732.40297,0.00025
731.92081,0.00027
731.43865,0.00029
730.95648,0.00027
730.47432,0.00022
729.99216,0.00023
729.51,0.00032
729.02784,0.00034
728.54568,0.00025
728.06352,0.00017
727.58135,0.00014
727.09919,0.00016
726.61703,0.00025
726.13487,0.00033
725.65271,0.00034
725.17055,0.00035
724.68839,0.00039
724.20623,0.00034
723.72406,0.00028
723.2419,0.00033
722.75974,0.00043
722.27758,0.00046
721.79542,0.00043
721.31326,0.00037
720.8311,0.00034
720.34894,0.00031
719.86677,0.00024
719.38461,0.0002
718.90245,0.00021
718.42029,0.00021
717.93813,0.00024
717.45597,0.00034
716.97381,0.00046
716.49165,0.00051
716.00948,0.00048
715.52732,0.00045
715.04516,0.00043
714.563,0.00035
714.08084,0.00026
713.59868,0.00024
713.11652,0.00027
712.63436,0.00027
712.15219,0.00024
711.67003,0.00021
711.18787,0.00023
710.70571,0.00025
710.22355,0.00023
709.74139,0.00025
709.25923,0.00031
708.77707,0.00031
708.2949,0.00029
707.81274,0.00026
707.33058,0.00024
706.84842,0.00028
706.36626,0.00038
705.8841,0.00042
705.40194,0.0004
704.91978,0.00039
704.43761,0.00037
703.95545,0.00036
703.47329,0.00034
702.99113,0.00032
702.50897,0.00029
702.02681,0.00025
701.54465,0.00025
701.06249,0.00038
700.58032,0.00053
700.09816,0.00055
699.616,0.00043
699.13384,0.00027
698.65168,0.00012
698.16952,0.00008
697.68736,0.00012
697.20519,0.00011
696.72303,0.0001
696.24087,0.00019
695.75871,0.00035
695.27655,0.00042
694.79439,0.00036
694.31223,0.00031
693.83007,0.00033
693.3479,0.00035
692.86574,0.00039
692.38358,0.00045
691.90142,0.0005
691.41926,0.00039
690.9371,0.00023
690.45494,0.0002
689.97278,0.00025
689.49061,0.00026
689.00845,0.0003
688.52629,0.00041
688.04413,0.00044
687.56197,0.0004
687.07981,0.0004
686.59765,0.00043
686.11549,0.00046
685.63332,0.00048
685.15116,0.00049
684.669,0.00046
684.18684,0.00035
683.70468,0.00026
683.22252,0.00031
682.74036,0.00037
682.2582,0.00039
681.77603,0.00045
681.29387,0.00054
680.81171,0.00056
680.32955,0.00049
679.84739,0.00044
679.36523,0.00049
678.88307,0.00055
678.40091,0.00058
677.91874,0.00062
677.43658,0.00056
676.95442,0.00042
676.47226,0.00036
675.9901,0.00041
675.50794,0.00041
675.02578,0.00042
674.54362,0.00044
674.06145,0.0004
673.57929,0.00033
673.09713,0.00026
672.61497,0.00023
672.13281,0.00023
671.65065,0.00021
671.16849,0.00014
670.68633,0.00011
670.20416,0.00016
669.722,0.00025
669.23984,0.00032
668.75768,0.00032
668.27552,0.00037
667.79336,0.00057
667.3112,0.00066
666.82904,0.00051
666.34687,0.00032
665.86471,0.00021
665.38255,0.00009
664.90039,0.00001
664.41823,0.00008
663.93607,0.00019
663.45391,0.00024
662.97174,0.0003
662.48958,0.00036
662.00742,0.00032
661.52526,0.00026
661.0431,0.00023
660.56094,0.0002
660.07878,0.00023
659.59662,0.0003
659.11445,0.00037
658.63229,0.00035
658.15013,0.00031
657.66797,0.0003
657.18581,0.00029
656.70365,0.00026
656.22149,0.00024
655.73933,0.00031
655.25716,0.00039
654.775,0.00041
654.29284,0.00037
653.81068,0.00032
653.32852,0.00029
652.84636,0.00026
652.3642,0.00021
651.88204,0.00016
651.39987,0.00018
650.91771,0.00026
650.43555,0.00029
649.95339,0.00026
649.47123,0.00023
648.98907,0.00024
648.50691,0.00025
648.02475,0.00024
647.54258,0.00029
647.06042,0.00036
646.57826,0.00043
646.0961,0.00044
645.61394,0.00034
645.13178,0.00019
644.64962,0.00014
644.16746,0.00022
643.68529,0.00036
643.20313,0.00042
642.72097,0.0004
642.23881,0.00037
641.75665,0.00037
641.27449,0.0004
640.79233,0.00046
640.31017,0.00045
639.828,0.00036
639.34584,0.00026
638.86368,0.00024
638.38152,0.00031
637.89936,0.00041
637.4172,0.00043
636.93504,0.00041
636.45288,0.00044
635.97071,0.00045
635.48855,0.00044
635.00639,0.00048
634.52423,0.00055
634.04207,0.00059
633.55991,0.00054
633.07775,0.0004
632.59558,0.00033
632.11342,0.00034
631.63126,0.0003
631.1491,0.00029
630.66694,0.00038
630.18478,0.00048
629.70262,0.00054
629.22046,0.00054
628.73829,0.00048
628.25613,0.00042
627.77397,0.00041
627.29181,0.0004
626.80965,0.00038
626.32749,0.00034
625.84533,0.0003
625.36317,0.00034
624.881,0.00043
624.39884,0.00042
623.91668,0.00034
623.43452,0.00024
622.95236,0.00015
622.4702,0.00018
621.98804,0.00032
621.50588,0.00045
621.02371,0.00049
620.54155,0.00047
620.05939,0.00049
619.57723,0.00057
619.09507,0.0006
618.61291,0.00052
618.13075,0.00039
617.64859,0.00032
617.16642,0.00036
616.68426,0.0004
616.2021,0.00035
615.71994,0.00024
615.23778,0.00018
614.75562,0.00023
614.27346,0.00032
613.7913,0.00038
613.30913,0.0004
612.82697,0.00035
612.34481,0.0003
611.86265,0.00028
611.38049,0.00032
610.89833,0.00039
610.41617,0.00046
609.93401,0.00051
609.45184,0.00044
608.96968,0.00027
608.48752,0.00014
608.00536,0.00019
607.5232,0.00033
607.04104,0.00041
606.55888,0.00045
606.07672,0.00047
605.59455,0.00042
605.11239,0.00034
604.63023,0.00035
604.14807,0.00035
603.66591,0.00021
603.18375,-0.00001
602.70159,-0.00007
602.21942,0.00002
601.73726,0.00016
601.2551,0.00033
600.77294,0.00044
600.29078,0.00044
599.80862,0.00045
599.32646,0.0005
598.8443,0.00049
598.36213,0.00044
597.87997,0.00049
597.39781,0.00065
596.91565,0.00078
596.43349,0.0008
595.95133,0.0007
595.46917,0.00061
594.98701,0.00055
594.50484,0.00047
594.02268,0.00052
593.54052,0.00067
593.05836,0.00067
592.5762,0.00054
592.09404,0.00042
591.61188,0.00031
591.12972,0.00024
590.64755,0.00025
590.16539,0.00026
589.68323,0.00021
589.20107,0.0002
588.71891,0.00025
588.23675,0.00031
587.75459,0.00038
587.27243,0.00042
586.79026,0.00043
586.3081,0.00048
585.82594,0.00051
585.34378,0.00049
584.86162,0.00048
584.37946,0.00055
583.8973,0.00057
583.41514,0.00049
582.93297,0.00039
582.45081,0.00027
581.96865,0.00018
581.48649,0.0002
581.00433,0.00026
580.52217,0.00037
580.04001,0.00052
579.55785,0.00053
579.07568,0.00042
578.59352,0.00032
578.11136,0.00025
577.6292,0.00025
577.14704,0.00033
576.66488,0.00042
576.18272,0.00055
575.70056,0.0007
575.21839,0.00062
574.73623,0.0004
574.25407,0.00037
573.77191,0.00049
573.28975,0.00055
572.80759,0.00057
572.32543,0.00066
571.84327,0.00071
571.3611,0.00061
570.87894,0.00053
570.39678,0.00063
569.91462,0.00084
569.43246,0.00093
568.9503,0.00085
568.46814,0.00066
567.98597,0.00039
567.50381,0.00017
567.02165,0.00012
566.53949,0.00015
566.05733,0.0002
565.57517,0.00041
565.09301,0.00061
564.61085,0.00049
564.12868,0.00028
563.64652,0.00023
563.16436,0.00023
562.6822,0.00028
562.20004,0.00048
561.71788,0.00064
561.23572,0.00065
560.75356,0.0006
560.27139,0.00048
559.78923,0.00028
559.30707,0.00015
558.82491,0.00021
558.34275,0.0004
557.86059,0.00056
557.37843,0.00063
556.89627,0.00061
556.4141,0.00054
555.93194,0.00054
555.44978,0.00063
554.96762,0.00067
554.48546,0.0006
554.0033,0.00045
553.52114,0.0003
553.03898,0.00029
552.55681,0.00042
552.07465,0.00056
551.59249,0.00058
551.11033,0.00049
550.62817,0.00038
550.14601,0.00029
549.66385,0.0003
549.18169,0.00039
548.69952,0.00045
548.21736,0.00047
547.7352,0.00043
547.25304,0.00036
546.77088,0.00028
546.28872,0.00017
545.80656,0.00017
545.3244,0.00031
544.84223,0.00039
544.36007,0.00031
543.87791,0.00016
543.39575,0.0001
542.91359,0.0002
542.43143,0.00034
541.94927,0.00038
541.46711,0.00044
540.98494,0.00055
540.50278,0.0006
540.02062,0.00058
539.53846,0.00053
539.0563,0.00052
538.57414,0.00062
538.09198,0.00075
537.60981,0.00065
537.12765,0.00042
536.64549,0.00036
536.16333,0.0004
535.68117,0.00051
535.19901,0.00069
534.71685,0.00074
534.23469,0.00069
533.75252,0.00061
533.27036,0.00048
532.7882,0.00044
532.30604,0.00049
531.82388,0.00049
531.34172,0.00047
530.85956,0.00052
530.3774,0.00065
529.89523,0.00086
529.41307,0.00101
528.93091,0.00108
528.44875,0.0011
527.96659,0.00098
527.48443,0.00074
527.00227,0.00052
526.52011,0.00037
526.03794,0.00017
525.55578,0.00004
525.07362,0.00009
524.59146,0.00019
524.1093,0.00023
523.62714,0.00026
523.14498,0.0003
522.66282,0.00029
522.18065,0.00027
521.69849,0.00031
521.21633,0.00042
520.73417,0.00056
520.25201,0.00061
519.76985,0.00059
519.28769,0.00056
518.80553,0.0004
518.32336,0.00012
517.8412,-0.00008
517.35904,-0.00001
516.87688,0.00027
516.39472,0.00051
515.91256,0.00062
515.4304,0.00071
514.94824,0.00075
514.46607,0.00068
513.98391,0.00065
513.50175,0.00073
513.01959,0.00074
512.53743,0.0006
512.05527,0.00052
511.57311,0.00067
511.09095,0.00085
510.60878,0.00084
510.12662,0.00083
509.64446,0.00098
509.1623,0.00107
508.68014,0.0009
508.19798,0.00061
507.71582,0.00042
507.23366,0.0004
506.75149,0.00044
506.26933,0.00038
505.78717,0.00017
505.30501,-0.00003
504.82285,-0.00005
504.34069,0.00016
503.85853,0.00045
503.37636,0.00061
502.8942,0.00064
502.41204,0.00054
501.92988,0.00039
501.44772,0.00041
500.96556,0.00059
500.4834,0.00068
500.00124,0.00056
499.51907,0.00037
499.03691,0.00031
498.55475,0.00036
498.07259,0.00038
497.59043,0.00043
497.10827,0.00054
496.62611,0.0006
496.14395,0.00064
495.66178,0.00075
495.17962,0.00077
494.69746,0.00062
494.2153,0.0005
493.73314,0.00057
493.25098,0.00073
492.76882,0.00084
492.28666,0.00092
491.80449,0.001
491.32233,0.00091
490.84017,0.00058
490.35801,0.00028
489.87585,0.00033
489.39369,0.0006
488.91153,0.00066
488.42937,0.0005
487.9472,0.00046
487.46504,0.0006
486.98288,0.00058
486.50072,0.0004
486.01856,0.00044
485.5364,0.00059
485.05424,0.00059
484.57208,0.0007
484.08991,0.00091
483.60775,0.00081
483.12559,0.00053
482.64343,0.00052
482.16127,0.00064
481.67911,0.0005
481.19695,0.00027
480.71479,0.00035
480.23262,0.00054
479.75046,0.00053
479.2683,0.00046
478.78614,0.00045
478.30398,0.00045
477.82182,0.00047
477.33966,0.00057
476.8575,0.00064
476.37533,0.00054
475.89317,0.00034
475.41101,0.00024
474.92885,0.00029
474.44669,0.00048
473.96453,0.00066
473.48237,0.00059
473.0002,0.00038
472.51804,0.00041
472.03588,0.00077
471.55372,0.00098
471.07156,0.0008
470.5894,0.00065
470.10724,0.00076
469.62508,0.00087
469.14291,0.0009
468.66075,0.001
468.17859,0.00096
467.69643,0.00073
467.21427,0.00062
466.73211,0.0007
466.24995,0.00082
465.76779,0.00095
465.28562,0.00109
464.80346,0.00117
464.3213,0.00115
463.83914,0.00105
463.35698,0.00108
462.87482,0.00123
462.39266,0.00113
461.9105,0.00088
461.42833,0.00073
460.94617,0.00066
460.46401,0.00066
459.98185,0.0008
459.49969,0.00093
459.01753,0.00092
458.53537,0.0009
458.05321,0.00094
457.57104,0.00088
457.08888,0.0007
456.60672,0.00063
456.12456,0.00075
455.6424,0.00079
455.16024,0.00063
454.67808,0.00058
454.19592,0.00065
453.71375,0.00059
453.23159,0.00055
452.74943,0.00067
452.26727,0.00078
451.78511,0.00089
451.30295,0.00093
450.82079,0.00087
450.33863,0.001
449.85646,0.00124
449.3743,0.00113
448.89214,0.00092
448.40998,0.00094
447.92782,0.00081
447.44566,0.00048
446.9635,0.00054
446.48134,0.00086
445.99917,0.00102
445.51701,0.00111
445.03485,0.00108
444.55269,0.00085
444.07053,0.00073
443.58837,0.00067
443.10621,0.00045
442.62404,0.00042
442.14188,0.00066
441.65972,0.00074
441.17756,0.00038
440.6954,-0.00005
440.21324,-0.00013
439.73108,0.0001
439.24892,0.00049
438.76675,0.00077
438.28459,0.00079
437.80243,0.00083
437.32027,0.00089
436.83811,0.0007
436.35595,0.00044
435.87379,0.00058
435.39163,0.00102
434.90946,0.00115
434.4273,0.00078
433.94514,0.00039
433.46298,0.00026
432.98082,0.00031
432.49866,0.00034
432.0165,0.00032
431.53434,0.00015
431.05217,-0.00022
430.57001,-0.00039
430.08785,0.00003
429.60569,0.00077
429.12353,0.0012
428.64137,0.00106
428.15921,0.00064
427.67705,0.00045
427.19488,0.00076
426.71272,0.00119
426.23056,0.00133
425.7484,0.00121
425.26624,0.001
424.78408,0.00065
424.30192,0.00021
423.81976,0.00004
423.33759,0.00037
422.85543,0.00088
422.37327,0.00111
421.89111,0.00108
421.40895,0.00099
420.92679,0.00105
420.44463,0.00128
419.96247,0.0013
419.4803,0.00114
418.99814,0.00111
418.51598,0.00083
418.03382,0.00049
417.55166,0.00051
417.0695,0.00059
416.58734,0.00053
416.10518,0.00063
415.62301,0.0009
415.14085,0.00113
414.65869,0.00134
414.17653,0.00159
413.69437,0.00149
413.21221,0.00069
412.73005,0.00009
412.24789,0.00048
411.76572,0.00096
411.28356,0.0008
410.8014,0.00039
410.31924,0.0002
409.83708,0.00023
409.35492,0.00034
408.87276,0.00048
408.39059,0.00044
407.90843,0.00031
407.42627,0.00053
406.94411,0.00108
406.46195,0.00151
405.97979,0.00153
405.49763,0.00128
405.01547,0.00123
404.5333,0.00136
404.05114,0.00118
403.56898,0.00087
403.08682,0.00089
402.60466,0.00107
402.1225,0.00105
401.64034,0.00098
401.15818,0.0013
400.67601,0.00156
400.19385,0.00095
399.71169,0.00006
