Wavenumber (cm-1),% Transmittance
3999.45147,0.85636
3998.96932,0.85647
3998.48717,0.85648
3998.00502,0.85643
3997.52287,0.85647
3997.04071,0.85655
3996.55856,0.85689
3996.07641,0.85824
3995.59426,0.86019
3995.11211,0.86071
3994.62995,0.85937
3994.1478,0.85795
3993.66565,0.85741
3993.1835,0.85739
3992.70135,0.85735
3992.21919,0.8574
3991.73704,0.85843
3991.25489,0.86033
3990.77274,0.86134
3990.29058,0.8607
3989.80843,0.8594
3989.32628,0.85816
3988.84413,0.85729
3988.36198,0.85687
3987.87982,0.85669
3987.39767,0.85665
3986.91552,0.85689
3986.43337,0.85734
3985.95122,0.85768
3985.46906,0.85775
3984.98691,0.85768
3984.50476,0.85765
3984.02261,0.85776
3983.54046,0.85821
3983.0583,0.85899
3982.57615,0.85941
3982.094,0.85906
3981.61185,0.85849
3981.1297,0.85822
3980.64754,0.85817
3980.16539,0.85814
3979.68324,0.85791
3979.20109,0.85754
3978.71894,0.8573
3978.23678,0.85728
3977.75463,0.85766
3977.27248,0.85894
3976.79033,0.86087
3976.30817,0.86213
3975.82602,0.8622
3975.34387,0.86177
3974.86172,0.86145
3974.37957,0.86128
3973.89741,0.86104
3973.41526,0.8613
3972.93311,0.86229
3972.45096,0.8625
3971.96881,0.86108
3971.48665,0.85931
3971.0045,0.85834
3970.52235,0.85865
3970.0402,0.86061
3969.55805,0.86257
3969.07589,0.86218
3968.59374,0.86022
3968.11159,0.85872
3967.62944,0.85793
3967.14729,0.85749
3966.66513,0.85732
3966.18298,0.85744
3965.70083,0.85786
3965.21868,0.85836
3964.73652,0.85862
3964.25437,0.85855
3963.77222,0.85847
3963.29007,0.85986
3962.80792,0.86426
3962.32576,0.86884
3961.84361,0.86853
3961.36146,0.86437
3960.87931,0.86113
3960.39716,0.86013
3959.915,0.85988
3959.43285,0.85972
3958.9507,0.86003
3958.46855,0.86052
3957.9864,0.86125
3957.50424,0.86247
3957.02209,0.86271
3956.53994,0.86135
3956.05779,0.86011
3955.57564,0.85957
3955.09348,0.85903
3954.61133,0.85892
3954.12918,0.86042
3953.64703,0.86295
3953.16488,0.86388
3952.68272,0.86244
3952.20057,0.86062
3951.71842,0.86063
3951.23627,0.86525
3950.75411,0.8748
3950.27196,0.88118
3949.78981,0.87772
3949.30766,0.87211
3948.82551,0.87276
3948.34335,0.87793
3947.8612,0.88062
3947.37905,0.87629
3946.8969,0.86832
3946.41475,0.86237
3945.93259,0.8599
3945.45044,0.86055
3944.96829,0.86313
3944.48614,0.86567
3944.00399,0.87175
3943.52183,0.88646
3943.03968,0.8988
3942.55753,0.8929
3942.07538,0.8776
3941.59323,0.86697
3941.11107,0.86208
3940.62892,0.85997
3940.14677,0.85933
3939.66462,0.85994
3939.18246,0.86141
3938.70031,0.86246
3938.21816,0.86194
3937.73601,0.86036
3937.25386,0.85902
3936.7717,0.85841
3936.28955,0.85857
3935.8074,0.85948
3935.32525,0.86166
3934.8431,0.86523
3934.36094,0.86778
3933.87879,0.87047
3933.39664,0.88135
3932.91449,0.89866
3932.43234,0.90337
3931.95018,0.89148
3931.46803,0.88059
3930.98588,0.87688
3930.50373,0.87644
3930.02158,0.87733
3929.53942,0.87626
3929.05727,0.87128
3928.57512,0.86605
3928.09297,0.86273
3927.61081,0.86072
3927.12866,0.86001
3926.64651,0.86276
3926.16436,0.87349
3925.68221,0.88967
3925.20005,0.89789
3924.7179,0.89413
3924.23575,0.88714
3923.7536,0.87971
3923.27145,0.87147
3922.78929,0.86504
3922.30714,0.86178
3921.82499,0.86175
3921.34284,0.86872
3920.86069,0.88506
3920.37853,0.89754
3919.89638,0.89124
3919.41423,0.87682
3918.93208,0.86939
3918.44993,0.87544
3917.96777,0.89421
3917.48562,0.9101
3917.00347,0.90853
3916.52132,0.89519
3916.03917,0.87974
3915.55701,0.86828
3915.07486,0.86257
3914.59271,0.86046
3914.11056,0.85975
3913.6284,0.85944
3913.14625,0.85929
3912.6641,0.85907
3912.18195,0.85874
3911.6998,0.85855
3911.21764,0.85856
3910.73549,0.85858
3910.25334,0.85862
3909.77119,0.85878
3909.28904,0.85899
3908.80688,0.85915
3908.32473,0.85946
3907.84258,0.86081
3907.36043,0.86691
3906.87828,0.88122
3906.39612,0.89641
3905.91397,0.90245
3905.43182,0.91151
3904.94967,0.9384
3904.46752,0.95918
3903.98536,0.94004
3903.50321,0.91455
3903.02106,0.91796
3902.53891,0.94701
3902.05675,0.96072
3901.5746,0.93274
3901.09245,0.90256
3900.6103,0.90017
3900.12815,0.92793
3899.64599,0.95655
3899.16384,0.94524
3898.68169,0.91489
3898.19954,0.89211
3897.71739,0.87724
3897.23523,0.86829
3896.75308,0.86395
3896.27093,0.86209
3895.78878,0.86193
3895.30663,0.86467
3894.82447,0.87024
3894.34232,0.8743
3893.86017,0.87452
3893.37802,0.87551
3892.89587,0.88385
3892.41371,0.90699
3891.93156,0.94216
3891.44941,0.95374
3890.96726,0.92491
3890.48511,0.89318
3890.00295,0.87538
3889.5208,0.86725
3889.03865,0.86393
3888.5565,0.86307
3888.07434,0.86396
3887.59219,0.86959
3887.11004,0.88983
3886.62789,0.93369
3886.14574,0.97749
3885.66358,0.96452
3885.18143,0.92074
3884.69928,0.89374
3884.21713,0.88698
3883.73498,0.88842
3883.25282,0.88526
3882.77067,0.87806
3882.28852,0.87822
3881.80637,0.89426
3881.32422,0.92865
3880.84206,0.9681
3880.35991,0.97139
3879.87776,0.93251
3879.39561,0.89514
3878.91346,0.87523
3878.4313,0.86666
3877.94915,0.86345
3877.467,0.8627
3876.98485,0.86305
3876.50269,0.86399
3876.02054,0.86816
3875.53839,0.88454
3875.05624,0.9192
3874.57409,0.95187
3874.09193,0.94623
3873.60978,0.91443
3873.12763,0.88878
3872.64548,0.87923
3872.16333,0.88316
3871.68117,0.89633
3871.19902,0.92149
3870.71687,0.96376
3870.23472,1.00502
3869.75257,1.00571
3869.27041,0.96563
3868.78826,0.91912
3868.30611,0.88893
3867.82396,0.87491
3867.34181,0.87099
3866.85965,0.87541
3866.3775,0.8923
3865.89535,0.92702
3865.4132,0.96376
3864.93105,0.96363
3864.44889,0.93425
3863.96674,0.90754
3863.48459,0.89321
3863.00244,0.89527
3862.52028,0.91406
3862.03813,0.92749
3861.55598,0.91302
3861.07383,0.88916
3860.59168,0.87434
3860.10952,0.868
3859.62737,0.86601
3859.14522,0.86638
3858.66307,0.87164
3858.18092,0.8872
3857.69876,0.907
3857.21661,0.91122
3856.73446,0.89987
3856.25231,0.89439
3855.77016,0.90887
3855.288,0.95076
3854.80585,1.03408
3854.3237,1.11769
3853.84155,1.07886
3853.3594,1.02615
3852.87724,1.01945
3852.39509,1.02172
3851.91294,0.98097
3851.43079,0.92954
3850.94863,0.9006
3850.46648,0.89176
3849.98433,0.89057
3849.50218,0.88577
3849.02003,0.87717
3848.53787,0.87006
3848.05572,0.86621
3847.57357,0.86492
3847.09142,0.86519
3846.60927,0.86566
3846.12711,0.86647
3845.64496,0.86956
3845.16281,0.87917
3844.68066,0.90168
3844.19851,0.92913
3843.71635,0.9311
3843.2342,0.90742
3842.75205,0.8888
3842.2699,0.89036
3841.78775,0.91232
3841.30559,0.93896
3840.82344,0.95087
3840.34129,0.94664
3839.85914,0.93248
3839.37698,0.92648
3838.89483,0.94786
3838.41268,0.99233
3837.93053,1.00288
3837.44838,0.95812
3836.96622,0.91767
3836.48407,0.90254
3836.00192,0.91491
3835.51977,0.94319
3835.03762,0.94833
3834.55546,0.92015
3834.07331,0.89293
3833.59116,0.88001
3833.10901,0.88272
3832.62686,0.90577
3832.1447,0.93758
3831.66255,0.93945
3831.1804,0.91119
3830.69825,0.88663
3830.2161,0.87403
3829.73394,0.86901
3829.25179,0.86904
3828.76964,0.87257
3828.28749,0.87897
3827.80534,0.89261
3827.32318,0.91201
3826.84103,0.91752
3826.35888,0.90336
3825.87673,0.88776
3825.39457,0.87941
3824.91242,0.87705
3824.43027,0.87792
3823.94812,0.88026
3823.46597,0.88561
3822.98381,0.90261
3822.50166,0.94199
3822.01951,0.99762
3821.53736,1.03875
3821.05521,1.03822
3820.57305,0.99598
3820.0909,0.94579
3819.60875,0.91203
3819.1266,0.89488
3818.64445,0.88653
3818.16229,0.88383
3817.68014,0.89265
3817.19799,0.92204
3816.71584,0.97329
3816.23369,1.00272
3815.75153,0.96645
3815.26938,0.91987
3814.78723,0.89148
3814.30508,0.87716
3813.82292,0.87032
3813.34077,0.86708
3812.85862,0.86547
3812.37647,0.86453
3811.89432,0.86404
3811.41216,0.86402
3810.93001,0.86427
3810.44786,0.8646
3809.96571,0.86527
3809.48356,0.86688
3809.0014,0.87115
3808.51925,0.88425
3808.0371,0.91636
3807.55495,0.96512
3807.0728,0.98195
3806.59064,0.94554
3806.10849,0.90753
3805.62634,0.88608
3805.14419,0.87642
3804.66204,0.87429
3804.17988,0.88122
3803.69773,0.89896
3803.21558,0.92016
3802.73343,0.94238
3802.25128,0.9797
3801.76912,1.02236
3801.28697,1.01026
3800.80482,0.95954
3800.32267,0.91842
3799.84051,0.89415
3799.35836,0.88258
3798.87621,0.88028
3798.39406,0.88452
3797.91191,0.89295
3797.42975,0.91077
3796.9476,0.93481
3796.46545,0.93594
3795.9833,0.9101
3795.50115,0.88597
3795.01899,0.8729
3794.53684,0.86692
3794.05469,0.86445
3793.57254,0.8635
3793.09039,0.86315
3792.60823,0.8629
3792.12608,0.86263
3791.64393,0.86246
3791.16178,0.86254
3790.67963,0.86285
3790.19747,0.86342
3789.71532,0.86389
3789.23317,0.86375
3788.75102,0.86327
3788.26886,0.86322
3787.78671,0.86405
3787.30456,0.86555
3786.82241,0.86761
3786.34026,0.87112
3785.8581,0.87855
3785.37595,0.8894
3784.8938,0.89447
3784.41165,0.88735
3783.9295,0.87598
3783.44734,0.86871
3782.96519,0.86612
3782.48304,0.86599
3782.00089,0.86624
3781.51874,0.86691
3781.03658,0.87343
3780.55443,0.89524
3780.07228,0.92751
3779.59013,0.93686
3779.10798,0.91471
3778.62582,0.89178
3778.14367,0.87873
3777.66152,0.87107
3777.17937,0.86656
3776.69722,0.86438
3776.21506,0.86342
3775.73291,0.86297
3775.25076,0.86293
3774.76861,0.86316
3774.28645,0.86342
3773.8043,0.8635
3773.32215,0.86369
3772.84,0.86492
3772.35785,0.86781
3771.87569,0.87222
3771.39354,0.88242
3770.91139,0.90885
3770.42924,0.94682
3769.94709,0.95597
3769.46493,0.92653
3768.98278,0.89691
3768.50063,0.88023
3768.01848,0.87268
3767.53633,0.87207
3767.05417,0.88203
3766.57202,0.9067
3766.08987,0.92952
3765.60772,0.92263
3765.12557,0.89901
3764.64341,0.88221
3764.16126,0.87412
3763.67911,0.87068
3763.19696,0.86999
3762.7148,0.87021
3762.23265,0.86977
3761.7505,0.87031
3761.26835,0.87861
3760.7862,0.90371
3760.30404,0.94001
3759.82189,0.95505
3759.33974,0.93604
3758.85759,0.90874
3758.37544,0.89085
3757.89328,0.88922
3757.41113,0.90495
3756.92898,0.92108
3756.44683,0.91488
3755.96468,0.89663
3755.48252,0.88449
3755.00037,0.88199
3754.51822,0.88785
3754.03607,0.9005
3753.55392,0.92535
3753.07176,0.97402
3752.58961,1.03258
3752.10746,1.03043
3751.62531,0.98545
3751.14315,0.9575
3750.661,0.96237
3750.17885,1.00371
3749.6967,1.04791
3749.21455,1.01603
3748.73239,0.95928
3748.25024,0.92996
3747.76809,0.91875
3747.28594,0.91149
3746.80379,0.90925
3746.32163,0.92298
3745.83948,0.96542
3745.35733,1.05299
3744.87518,1.16969
3744.39303,1.14866
3743.91087,1.02731
3743.42872,0.94514
3742.94657,0.90688
3742.46442,0.89791
3741.98227,0.90798
3741.50011,0.91921
3741.01796,0.91413
3740.53581,0.89898
3740.05366,0.88888
3739.57151,0.89245
3739.08935,0.90849
3738.6072,0.92092
3738.12505,0.92354
3737.6429,0.93642
3737.16074,0.96304
3736.67859,0.97877
3736.19644,0.99213
3735.71429,1.02498
3735.23214,1.04803
3734.74998,1.01759
3734.26783,0.96158
3733.78568,0.92677
3733.30353,0.92978
3732.82138,0.96483
3732.33922,0.98845
3731.85707,0.95887
3731.37492,0.91823
3730.89277,0.8946
3730.41062,0.8828
3729.92846,0.87571
3729.44631,0.87159
3728.96416,0.87135
3728.48201,0.87572
3727.99986,0.88512
3727.5177,0.90252
3727.03555,0.92189
3726.5534,0.92383
3726.07125,0.91435
3725.58909,0.91139
3725.10694,0.9078
3724.62479,0.89616
3724.14264,0.88725
3723.66049,0.89184
3723.17833,0.91305
3722.69618,0.93762
3722.21403,0.93595
3721.73188,0.90991
3721.24973,0.8873
3720.76757,0.87702
3720.28542,0.87825
3719.80327,0.89045
3719.32112,0.90256
3718.83897,0.89892
3718.35681,0.88513
3717.87466,0.87492
3717.39251,0.8706
3716.91036,0.86953
3716.42821,0.86992
3715.94605,0.87385
3715.4639,0.8825
3714.98175,0.88815
3714.4996,0.88613
3714.01745,0.88724
3713.53529,0.90607
3713.05314,0.95011
3712.57099,1.00079
3712.08884,1.00169
3711.60668,0.96358
3711.12453,0.93237
3710.64238,0.92368
3710.16023,0.94172
3709.67808,0.96109
3709.19592,0.94373
3708.71377,0.90961
3708.23162,0.88703
3707.74947,0.87649
3707.26732,0.87236
3706.78516,0.87146
3706.30301,0.8721
3705.82086,0.87237
3705.33871,0.87092
3704.85656,0.86893
3704.3744,0.86793
3703.89225,0.86858
3703.4101,0.87406
3702.92795,0.89258
3702.4458,0.92528
3701.96364,0.94397
3701.48149,0.9248
3700.99934,0.89608
3700.51719,0.87894
3700.03503,0.87161
3699.55288,0.8689
3699.07073,0.8676
3698.58858,0.86671
3698.10643,0.86668
3697.62427,0.86873
3697.14212,0.8726
3696.65997,0.8747
3696.17782,0.87325
3695.69567,0.87118
3695.21351,0.87053
3694.73136,0.87116
3694.24921,0.87285
3693.76706,0.87457
3693.28491,0.87602
3692.80275,0.88276
3692.3206,0.9061
3691.83845,0.94665
3691.3563,0.97186
3690.87415,0.95708
3690.39199,0.93208
3689.90984,0.92643
3689.42769,0.95171
3688.94554,0.99972
3688.46339,1.00933
3687.98123,0.96184
3687.49908,0.91799
3687.01693,0.89302
3686.53478,0.88025
3686.05262,0.87434
3685.57047,0.87344
3685.08832,0.87538
3684.60617,0.87583
3684.12402,0.87322
3683.64186,0.87026
3683.15971,0.86856
3682.67756,0.86792
3682.19541,0.86802
3681.71326,0.8693
3681.2311,0.87304
3680.74895,0.88276
3680.2668,0.90161
3679.78465,0.91819
3679.3025,0.91386
3678.82034,0.89907
3678.33819,0.89462
3677.85604,0.90247
3677.37389,0.92036
3676.89174,0.95726
3676.40958,1.01933
3675.92743,1.08019
3675.44528,1.09952
3674.96313,1.05867
3674.48097,0.98606
3673.99882,0.92919
3673.51667,0.89813
3673.03452,0.88551
3672.55237,0.88618
3672.07021,0.90321
3671.58806,0.943
3671.10591,0.99143
3670.62376,0.99353
3670.14161,0.96577
3669.65945,0.96111
3669.1773,0.97007
3668.69515,0.95283
3668.213,0.91642
3667.73085,0.89017
3667.24869,0.87732
3666.76654,0.87179
3666.28439,0.8695
3665.80224,0.86831
3665.32009,0.86739
3664.83793,0.86666
3664.35578,0.86618
3663.87363,0.86597
3663.39148,0.86592
3662.90932,0.86594
3662.42717,0.86613
3661.94502,0.86648
3661.46287,0.86731
3660.98072,0.86945
3660.49856,0.87214
3660.01641,0.87276
3659.53426,0.87098
3659.05211,0.86942
3658.56996,0.86969
3658.0878,0.87374
3657.60565,0.88895
3657.1235,0.9234
3656.64135,0.95945
3656.1592,0.95145
3655.67704,0.91588
3655.19489,0.89005
3654.71274,0.87729
3654.23059,0.87221
3653.74844,0.87192
3653.26628,0.87458
3652.78413,0.88295
3652.30198,0.90776
3651.81983,0.9551
3651.33768,1.00317
3650.85552,1.01544
3650.37337,1.01058
3649.89122,1.02038
3649.40907,1.01731
3648.92691,0.98418
3648.44476,0.97226
3647.96261,0.99606
3647.48046,1.01382
3646.99831,0.98708
3646.51615,0.94228
3646.034,0.90781
3645.55185,0.8873
3645.0697,0.87574
3644.58755,0.86959
3644.10539,0.86803
3643.62324,0.87062
3643.14109,0.87548
3642.65894,0.87873
3642.17679,0.87756
3641.69463,0.87278
3641.21248,0.8678
3640.73033,0.86529
3640.24818,0.86462
3639.76603,0.86436
3639.28387,0.86616
3638.80172,0.87145
3638.31957,0.87529
3637.83742,0.87273
3637.35526,0.86717
3636.87311,0.86322
3636.39096,0.86156
3635.90881,0.86168
3635.42666,0.8647
3634.9445,0.87589
3634.46235,0.8954
3633.9802,0.90489
3633.49805,0.89335
3633.0159,0.87765
3632.53374,0.86912
3632.05159,0.86763
3631.56944,0.8731
3631.08729,0.88722
3630.60514,0.91712
3630.12298,0.9684
3629.64083,1.01896
3629.15868,1.04146
3628.67653,1.02825
3628.19438,0.97292
3627.71222,0.91881
3627.23007,0.89285
3626.74792,0.88585
3626.26577,0.88095
3625.78362,0.87196
3625.30146,0.8639
3624.81931,0.85945
3624.33716,0.85798
3623.85501,0.85866
3623.37285,0.85935
3622.8907,0.85923
3622.40855,0.86221
3621.9264,0.87152
3621.44425,0.88185
3620.96209,0.89258
3620.47994,0.91628
3619.99779,0.94475
3619.51564,0.94053
3619.03349,0.91982
3618.55133,0.91967
3618.06918,0.92781
3617.58703,0.91403
3617.10488,0.88766
3616.62273,0.87182
3616.14057,0.87079
3615.65842,0.88183
3615.17627,0.89723
3614.69412,0.90118
3614.21197,0.89334
3613.72981,0.89649
3613.24766,0.91904
3612.76551,0.93251
3612.28336,0.91253
3611.8012,0.88414
3611.31905,0.86764
3610.8369,0.86496
3610.35475,0.87971
3609.8726,0.91087
3609.39044,0.92792
3608.90829,0.90887
3608.42614,0.88987
3607.94399,0.89394
3607.46184,0.90678
3606.97968,0.90073
3606.49753,0.87949
3606.01538,0.86334
3605.53323,0.85546
3605.05108,0.85168
3604.56892,0.85022
3604.08677,0.85127
3603.60462,0.85448
3603.12247,0.85717
3602.64032,0.8576
3602.15816,0.86032
3601.67601,0.86931
3601.19386,0.87699
3600.71171,0.87552
3600.22956,0.86964
3599.7474,0.8656
3599.26525,0.86579
3598.7831,0.86869
3598.30095,0.8678
3597.81879,0.86168
3597.33664,0.85785
3596.85449,0.86159
3596.37234,0.87359
3595.89019,0.88794
3595.40803,0.88931
3594.92588,0.87623
3594.44373,0.86763
3593.96158,0.8722
3593.47943,0.87786
3592.99727,0.87165
3592.51512,0.85974
3592.03297,0.85178
3591.55082,0.84838
3591.06867,0.84794
3590.58651,0.84962
3590.10436,0.85629
3589.62221,0.87659
3589.14006,0.90721
3588.65791,0.91903
3588.17575,0.90905
3587.6936,0.91033
3587.21145,0.92763
3586.7293,0.92892
3586.24714,0.90228
3585.76499,0.87521
3585.28284,0.85947
3584.80069,0.85227
3584.31854,0.85112
3583.83638,0.85158
3583.35423,0.85017
3582.87208,0.84764
3582.38993,0.84512
3581.90778,0.843
3581.42562,0.84264
3580.94347,0.84556
3580.46132,0.84975
3579.97917,0.85059
3579.49702,0.84722
3579.01486,0.84298
3578.53271,0.84081
3578.05056,0.84203
3577.56841,0.84503
3577.08626,0.84539
3576.6041,0.84226
3576.12195,0.8395
3575.6398,0.8398
3575.15765,0.84178
3574.6755,0.84222
3574.19334,0.84022
3573.71119,0.8375
3573.22904,0.83516
3572.74689,0.83322
3572.26473,0.83202
3571.78258,0.83266
3571.30043,0.83584
3570.81828,0.83879
3570.33613,0.83843
3569.85397,0.83907
3569.37182,0.85126
3568.88967,0.87992
3568.40752,0.90527
3567.92537,0.90451
3567.44321,0.89988
3566.96106,0.90749
3566.47891,0.90954
3565.99676,0.89274
3565.51461,0.86715
3565.03245,0.84776
3564.5503,0.8403
3564.06815,0.83944
3563.586,0.83702
3563.10385,0.83244
3562.62169,0.82857
3562.13954,0.8252
3561.65739,0.82288
3561.17524,0.82417
3560.69308,0.82808
3560.21093,0.82818
3559.72878,0.82225
3559.24663,0.81566
3558.76448,0.81164
3558.28232,0.80997
3557.80017,0.80989
3557.31802,0.80949
3556.83587,0.80742
3556.35372,0.80476
3555.87156,0.80284
3555.38941,0.80183
3554.90726,0.80266
3554.42511,0.80546
3553.94296,0.80718
3553.4608,0.80826
3552.97865,0.81361
3552.4965,0.81938
3552.01435,0.81568
3551.5322,0.80557
3551.05004,0.79764
3550.56789,0.7929
3550.08574,0.7895
3549.60359,0.78789
3549.12143,0.78863
3548.63928,0.79038
3548.15713,0.79472
3547.67498,0.80368
3547.19283,0.80867
3546.71067,0.80358
3546.22852,0.80024
3545.74637,0.80368
3545.26422,0.80299
3544.78207,0.79476
3544.29991,0.78673
3543.81776,0.78163
3543.33561,0.77745
3542.85346,0.77279
3542.37131,0.76781
3541.88915,0.76365
3541.407,0.76078
3540.92485,0.75877
3540.4427,0.75716
3539.96055,0.75567
3539.47839,0.75414
3538.99624,0.75242
3538.51409,0.75069
3538.03194,0.74974
3537.54979,0.75149
3537.06763,0.75635
3536.58548,0.75906
3536.10333,0.75498
3535.62118,0.7479
3535.13902,0.74258
3534.65687,0.73936
3534.17472,0.73721
3533.69257,0.73556
3533.21042,0.73416
3532.72826,0.7331
3532.24611,0.73294
3531.76396,0.73386
3531.28181,0.73447
3530.79966,0.73338
3530.3175,0.73246
3529.83535,0.73466
3529.3532,0.73762
3528.87105,0.73714
3528.3889,0.73535
3527.90674,0.73563
3527.42459,0.73553
3526.94244,0.73205
3526.46029,0.72805
3525.97814,0.72587
3525.49598,0.724
3525.01383,0.72309
3524.53168,0.72436
3524.04953,0.7267
3523.56737,0.72872
3523.08522,0.72756
3522.60307,0.72158
3522.12092,0.71434
3521.63877,0.70918
3521.15661,0.70603
3520.67446,0.70414
3520.19231,0.70345
3519.71016,0.70369
3519.22801,0.70354
3518.74585,0.70217
3518.2637,0.7006
3517.78155,0.69937
3517.2994,0.69776
3516.81725,0.69586
3516.33509,0.69436
3515.85294,0.69335
3515.37079,0.69266
3514.88864,0.69228
3514.40649,0.69219
3513.92433,0.69208
3513.44218,0.69148
3512.96003,0.69047
3512.47788,0.68984
3511.99573,0.68971
3511.51357,0.68927
3511.03142,0.68894
3510.54927,0.69097
3510.06712,0.69552
3509.58496,0.69761
3509.10281,0.69402
3508.62066,0.68823
3508.13851,0.68383
3507.65636,0.68136
3507.1742,0.68025
3506.69205,0.67984
3506.2099,0.67984
3505.72775,0.6806
3505.2456,0.68231
3504.76344,0.68427
3504.28129,0.68699
3503.79914,0.69111
3503.31699,0.69337
3502.83484,0.6912
3502.35268,0.68709
3501.87053,0.68307
3501.38838,0.67902
3500.90623,0.67572
3500.42408,0.67401
3499.94192,0.6732
3499.45977,0.67237
3498.97762,0.6715
3498.49547,0.67089
3498.01331,0.6711
3497.53116,0.67262
3497.04901,0.67429
3496.56686,0.67428
3496.08471,0.67319
3495.60255,0.67239
3495.1204,0.67142
3494.63825,0.67005
3494.1561,0.66891
3493.67395,0.66825
3493.19179,0.66794
3492.70964,0.66792
3492.22749,0.66819
3491.74534,0.66871
3491.26319,0.66919
3490.78103,0.66933
3490.29888,0.66937
3489.81673,0.66989
3489.33458,0.67174
3488.85243,0.67522
3488.37027,0.67818
3487.88812,0.67832
3487.40597,0.67714
3486.92382,0.6769
3486.44167,0.67757
3485.95951,0.67826
3485.47736,0.67877
3484.99521,0.67955
3484.51306,0.6808
3484.0309,0.68236
3483.54875,0.68516
3483.0666,0.69035
3482.58445,0.69542
3482.1023,0.69678
3481.62014,0.69642
3481.13799,0.69754
3480.65584,0.699
3480.17369,0.69937
3479.69154,0.69933
3479.20938,0.69951
3478.72723,0.69999
3478.24508,0.70085
3477.76293,0.70207
3477.28078,0.70347
3476.79862,0.70493
3476.31647,0.70678
3475.83432,0.70945
3475.35217,0.71204
3474.87002,0.71304
3474.38786,0.71286
3473.90571,0.71283
3473.42356,0.71304
3472.94141,0.71312
3472.45925,0.71325
3471.9771,0.71361
3471.49495,0.71406
3471.0128,0.71451
3470.53065,0.71487
3470.04849,0.71513
3469.56634,0.71521
3469.08419,0.71478
3468.60204,0.71378
3468.11989,0.71316
3467.63773,0.71368
3467.15558,0.71394
3466.67343,0.71218
3466.19128,0.70915
3465.70913,0.70646
3465.22697,0.70446
3464.74482,0.70277
3464.26267,0.70128
3463.78052,0.70055
3463.29837,0.70062
3462.81621,0.69999
3462.33406,0.69804
3461.85191,0.69584
3461.36976,0.69392
3460.8876,0.69206
3460.40545,0.69009
3459.9233,0.68811
3459.44115,0.68637
3458.959,0.68488
3458.47684,0.68345
3457.99469,0.68217
3457.51254,0.68119
3457.03039,0.68054
3456.54824,0.68008
3456.06608,0.67954
3455.58393,0.67879
3455.10178,0.67809
3454.61963,0.6777
3454.13748,0.6776
3453.65532,0.67774
3453.17317,0.67801
3452.69102,0.67833
3452.20887,0.67881
3451.72672,0.67947
3451.24456,0.68019
3450.76241,0.68093
3450.28026,0.68187
3449.79811,0.68317
3449.31596,0.68487
3448.8338,0.68707
3448.35165,0.6913
3447.8695,0.69875
3447.38735,0.70494
3446.90519,0.70447
3446.42304,0.70058
3445.94089,0.69869
3445.45874,0.69893
3444.97659,0.6996
3444.49443,0.70047
3444.01228,0.70223
3443.53013,0.70554
3443.04798,0.70972
3442.56583,0.71235
3442.08367,0.71263
3441.60152,0.7125
3441.11937,0.71324
3440.63722,0.71467
3440.15507,0.71637
3439.67291,0.71822
3439.19076,0.7203
3438.70861,0.72263
3438.22646,0.72502
3437.74431,0.72718
3437.26215,0.72895
3436.78,0.73044
3436.29785,0.73203
3435.8157,0.73402
3435.33354,0.73618
3434.85139,0.73798
3434.36924,0.73922
3433.88709,0.74037
3433.40494,0.74182
3432.92278,0.74338
3432.44063,0.74492
3431.95848,0.74693
3431.47633,0.74938
3430.99418,0.75143
3430.51202,0.7526
3430.02987,0.7532
3429.54772,0.75392
3429.06557,0.75534
3428.58342,0.75728
3428.10126,0.75884
3427.61911,0.75969
3427.13696,0.76036
3426.65481,0.76126
3426.17266,0.76234
3425.6905,0.76352
3425.20835,0.76478
3424.7262,0.76614
3424.24405,0.76766
3423.7619,0.76931
3423.27974,0.77104
3422.79759,0.77302
3422.31544,0.77499
3421.83329,0.77677
3421.35113,0.77933
3420.86898,0.7822
3420.38683,0.78298
3419.90468,0.78157
3419.42253,0.78013
3418.94037,0.77959
3418.45822,0.77973
3417.97607,0.78019
3417.49392,0.7808
3417.01177,0.78156
3416.52961,0.78235
3416.04746,0.78309
3415.56531,0.78382
3415.08316,0.78465
3414.60101,0.78558
3414.11885,0.7866
3413.6367,0.78777
3413.15455,0.78889
3412.6724,0.78956
3412.19025,0.7898
3411.70809,0.78991
3411.22594,0.79013
3410.74379,0.79054
3410.26164,0.79129
3409.77948,0.79239
3409.29733,0.79346
3408.81518,0.79397
3408.33303,0.79401
3407.85088,0.79412
3407.36872,0.79453
3406.88657,0.7951
3406.40442,0.79566
3405.92227,0.79621
3405.44012,0.79675
3404.95796,0.79736
3404.47581,0.79824
3403.99366,0.79923
3403.51151,0.79994
3403.02936,0.80052
3402.5472,0.80138
3402.06505,0.80244
3401.5829,0.8033
3401.10075,0.80377
3400.6186,0.80407
3400.13644,0.80434
3399.65429,0.80441
3399.17214,0.80419
3398.68999,0.80417
3398.20784,0.8053
3397.72568,0.80731
3397.24353,0.80818
3396.76138,0.80734
3396.27923,0.80635
3395.79707,0.80607
3395.31492,0.80622
3394.83277,0.80649
3394.35062,0.80713
3393.86847,0.80899
3393.38631,0.81203
3392.90416,0.81419
3392.42201,0.81413
3391.93986,0.81292
3391.45771,0.81177
3390.97555,0.8109
3390.4934,0.8103
3390.01125,0.80997
3389.5291,0.80991
3389.04695,0.80996
3388.56479,0.8101
3388.08264,0.81043
3387.60049,0.81086
3387.11834,0.81141
3386.63619,0.81233
3386.15403,0.81343
3385.67188,0.81416
3385.18973,0.81471
3384.70758,0.81522
3384.22542,0.81519
3383.74327,0.81481
3383.26112,0.8146
3382.77897,0.81449
3382.29682,0.81445
3381.81466,0.81465
3381.33251,0.81509
3380.85036,0.81563
3380.36821,0.81598
3379.88606,0.81604
3379.4039,0.81611
3378.92175,0.81636
3378.4396,0.81674
3377.95745,0.81714
3377.4753,0.8175
3376.99314,0.81778
3376.51099,0.81792
3376.02884,0.81798
3375.54669,0.81815
3375.06454,0.81849
3374.58238,0.81876
3374.10023,0.81888
3373.61808,0.81903
3373.13593,0.81926
3372.65377,0.81955
3372.17162,0.81998
3371.68947,0.82056
3371.20732,0.82119
3370.72517,0.82191
3370.24301,0.82272
3369.76086,0.82344
3369.27871,0.82384
3368.79656,0.82411
3368.31441,0.82459
3367.83225,0.82495
3367.3501,0.82494
3366.86795,0.82521
3366.3858,0.82596
3365.90365,0.82627
3365.42149,0.8259
3364.93934,0.82549
3364.45719,0.82513
3363.97504,0.82465
3363.49289,0.82441
3363.01073,0.82474
3362.52858,0.82554
3362.04643,0.82631
3361.56428,0.82644
3361.08213,0.82614
3360.59997,0.82605
3360.11782,0.82619
3359.63567,0.82609
3359.15352,0.8257
3358.67136,0.82544
3358.18921,0.82569
3357.70706,0.82638
3357.22491,0.82699
3356.74276,0.82736
3356.2606,0.8278
3355.77845,0.82801
3355.2963,0.82767
3354.81415,0.82726
3354.332,0.8272
3353.84984,0.82728
3353.36769,0.82726
3352.88554,0.8273
3352.40339,0.82767
3351.92124,0.82836
3351.43908,0.82917
3350.95693,0.82979
3350.47478,0.82991
3349.99263,0.82953
3349.51048,0.82905
3349.02832,0.82884
3348.54617,0.82881
3348.06402,0.82881
3347.58187,0.82889
3347.09971,0.82901
3346.61756,0.8291
3346.13541,0.82924
3345.65326,0.82942
3345.17111,0.82958
3344.68895,0.82975
3344.2068,0.83008
3343.72465,0.83059
3343.2425,0.83099
3342.76035,0.83109
3342.27819,0.83099
3341.79604,0.8309
3341.31389,0.83094
3340.83174,0.83115
3340.34959,0.83146
3339.86743,0.83192
3339.38528,0.83254
3338.90313,0.83294
3338.42098,0.83296
3337.93883,0.83331
3337.45667,0.83453
3336.97452,0.8354
3336.49237,0.83479
3336.01022,0.8337
3335.52807,0.83343
3335.04591,0.83378
3334.56376,0.83383
3334.08161,0.83339
3333.59946,0.83298
3333.1173,0.83285
3332.63515,0.83286
3332.153,0.8329
3331.67085,0.83304
3331.1887,0.83319
3330.70654,0.83335
3330.22439,0.83357
3329.74224,0.83376
3329.26009,0.83386
3328.77794,0.83399
3328.29578,0.83436
3327.81363,0.83486
3327.33148,0.83532
3326.84933,0.83583
3326.36718,0.83627
3325.88502,0.83637
3325.40287,0.83617
3324.92072,0.83588
3324.43857,0.83558
3323.95642,0.83547
3323.47426,0.8356
3322.99211,0.8357
3322.50996,0.83556
3322.02781,0.83535
3321.54565,0.83531
3321.0635,0.83544
3320.58135,0.8356
3320.0992,0.83567
3319.61705,0.8357
3319.13489,0.83581
3318.65274,0.83602
3318.17059,0.83625
3317.68844,0.83644
3317.20629,0.83647
3316.72413,0.83635
3316.24198,0.83627
3315.75983,0.83634
3315.27768,0.83647
3314.79553,0.83674
3314.31337,0.83746
3313.83122,0.83847
3313.34907,0.83894
3312.86692,0.83868
3312.38477,0.83822
3311.90261,0.83797
3311.42046,0.83812
3310.93831,0.83851
3310.45616,0.83876
3309.97401,0.83942
3309.49185,0.84097
3309.0097,0.84214
3308.52755,0.8418
3308.0454,0.84078
3307.56324,0.8403
3307.08109,0.84043
3306.59894,0.84057
3306.11679,0.84049
3305.63464,0.8404
3305.15248,0.84039
3304.67033,0.84026
3304.18818,0.83989
3303.70603,0.83949
3303.22388,0.83923
3302.74172,0.83903
3302.25957,0.83885
3301.77742,0.83875
3301.29527,0.83878
3300.81312,0.83893
3300.33096,0.83909
3299.84881,0.83919
3299.36666,0.8393
3298.88451,0.83962
3298.40236,0.84016
3297.9202,0.84065
3297.43805,0.84085
3296.9559,0.84077
3296.47375,0.84048
3295.99159,0.84027
3295.50944,0.8404
3295.02729,0.84067
3294.54514,0.84073
3294.06299,0.84068
3293.58083,0.84109
3293.09868,0.84205
3292.61653,0.84295
3292.13438,0.84344
3291.65223,0.84335
3291.17007,0.8425
3290.68792,0.84141
3290.20577,0.84078
3289.72362,0.84081
3289.24147,0.84126
3288.75931,0.84155
3288.27716,0.84132
3287.79501,0.84085
3287.31286,0.84056
3286.83071,0.84055
3286.34855,0.84063
3285.8664,0.84064
3285.38425,0.84078
3284.9021,0.84116
3284.41994,0.84154
3283.93779,0.84183
3283.45564,0.84204
3282.97349,0.84197
3282.49134,0.84161
3282.00918,0.84132
3281.52703,0.84135
3281.04488,0.84168
3280.56273,0.84209
3280.08058,0.84228
3279.59842,0.84223
3279.11627,0.8421
3278.63412,0.84195
3278.15197,0.84197
3277.66982,0.84253
3277.18766,0.84386
3276.70551,0.84505
3276.22336,0.84502
3275.74121,0.84428
3275.25906,0.84392
3274.7769,0.84448
3274.29475,0.84567
3273.8126,0.84617
3273.33045,0.8454
3272.8483,0.84446
3272.36614,0.84425
3271.88399,0.84456
3271.40184,0.84483
3270.91969,0.8448
3270.43753,0.84452
3269.95538,0.84413
3269.47323,0.84375
3268.99108,0.84343
3268.50893,0.84316
3268.02677,0.84303
3267.54462,0.8431
3267.06247,0.84333
3266.58032,0.84356
3266.09817,0.84377
3265.61601,0.84405
3265.13386,0.84424
3264.65171,0.84418
3264.16956,0.84407
3263.68741,0.84402
3263.20525,0.84398
3262.7231,0.84392
3262.24095,0.84388
3261.7588,0.84402
3261.27665,0.84448
3260.79449,0.84502
3260.31234,0.84516
3259.83019,0.84496
3259.34804,0.84473
3258.86588,0.84459
3258.38373,0.84475
3257.90158,0.84532
3257.41943,0.84583
3256.93728,0.84586
3256.45512,0.84568
3255.97297,0.84557
3255.49082,0.84576
3255.00867,0.84662
3254.52652,0.84766
3254.04436,0.84763
3253.56221,0.84664
3253.08006,0.8457
3252.59791,0.84514
3252.11576,0.84489
3251.6336,0.84487
3251.15145,0.84492
3250.6693,0.84495
3250.18715,0.84497
3249.705,0.84504
3249.22284,0.84512
3248.74069,0.84522
3248.25854,0.84556
3247.77639,0.84609
3247.29424,0.84643
3246.81208,0.84646
3246.32993,0.84676
3245.84778,0.84802
3245.36563,0.84946
3244.88347,0.84944
3244.40132,0.84804
3243.91917,0.84675
3243.43702,0.84611
3242.95487,0.84592
3242.47271,0.84602
3241.99056,0.84618
3241.50841,0.84621
3241.02626,0.84632
3240.54411,0.8466
3240.06195,0.84666
3239.5798,0.84642
3239.09765,0.84622
3238.6155,0.84619
3238.13335,0.84628
3237.65119,0.84669
3237.16904,0.8473
3236.68689,0.84755
3236.20474,0.84729
3235.72259,0.84693
3235.24043,0.84676
3234.75828,0.84694
3234.27613,0.84751
3233.79398,0.8483
3233.31182,0.84874
3232.82967,0.84844
3232.34752,0.84775
3231.86537,0.84718
3231.38322,0.84691
3230.90106,0.84707
3230.41891,0.84747
3229.93676,0.84749
3229.45461,0.84699
3228.97246,0.84647
3228.4903,0.84637
3228.00815,0.84658
3227.526,0.84646
3227.04385,0.84576
3226.5617,0.8449
3226.07954,0.84417
3225.59739,0.84355
3225.11524,0.84295
3224.63309,0.84232
3224.15094,0.84164
3223.66878,0.84097
3223.18663,0.84044
3222.70448,0.84012
3222.22233,0.83971
3221.74018,0.83905
3221.25802,0.83844
3220.77587,0.83815
3220.29372,0.83837
3219.81157,0.83873
3219.32941,0.83826
3218.84726,0.83685
3218.36511,0.83547
3217.88296,0.8347
3217.40081,0.83457
3216.91865,0.83479
3216.4365,0.835
3215.95435,0.83515
3215.4722,0.83568
3214.99005,0.83712
3214.50789,0.83885
3214.02574,0.83942
3213.54359,0.83883
3213.06144,0.83836
3212.57929,0.83856
3212.09713,0.8392
3211.61498,0.83991
3211.13283,0.84073
3210.65068,0.84211
3210.16853,0.84376
3209.68637,0.84452
3209.20422,0.84422
3208.72207,0.84373
3208.23992,0.84359
3207.75776,0.84381
3207.27561,0.84426
3206.79346,0.8447
3206.31131,0.84503
3205.82916,0.84533
3205.347,0.84562
3204.86485,0.84585
3204.3827,0.84612
3203.90055,0.84647
3203.4184,0.84676
3202.93624,0.84692
3202.45409,0.84705
3201.97194,0.84725
3201.48979,0.84752
3201.00764,0.84784
3200.52548,0.84821
3200.04333,0.8485
3199.56118,0.84869
3199.07903,0.84922
3198.59688,0.8504
3198.11472,0.85139
3197.63257,0.85127
3197.15042,0.85068
3196.66827,0.85048
3196.18611,0.8504
3195.70396,0.85011
3195.22181,0.84978
3194.73966,0.84958
3194.25751,0.84953
3193.77535,0.84961
3193.2932,0.84976
3192.81105,0.84989
3192.3289,0.85002
3191.84675,0.85013
3191.36459,0.85017
3190.88244,0.85016
3190.40029,0.85017
3189.91814,0.85024
3189.43599,0.85038
3188.95383,0.85054
3188.47168,0.85066
3187.98953,0.85076
3187.50738,0.85081
3187.02523,0.85083
3186.54307,0.85108
3186.06092,0.85184
3185.57877,0.85266
3185.09662,0.8528
3184.61447,0.85232
3184.13231,0.8518
3183.65016,0.85152
3183.16801,0.85143
3182.68586,0.85142
3182.2037,0.85144
3181.72155,0.85151
3181.2394,0.8516
3180.75725,0.85167
3180.2751,0.85178
3179.79294,0.85203
3179.31079,0.85273
3178.82864,0.85413
3178.34649,0.8552
3177.86434,0.85474
3177.38218,0.85348
3176.90003,0.85262
3176.41788,0.85231
3175.93573,0.85227
3175.45358,0.85227
3174.97142,0.85222
3174.48927,0.85221
3174.00712,0.85224
3173.52497,0.85227
3173.04282,0.8523
3172.56066,0.85233
3172.07851,0.85233
3171.59636,0.85236
3171.11421,0.85246
3170.63205,0.85262
3170.1499,0.85276
3169.66775,0.85278
3169.1856,0.85272
3168.70345,0.85271
3168.22129,0.85281
3167.73914,0.85289
3167.25699,0.8529
3166.77484,0.8529
3166.29269,0.85293
3165.81053,0.85294
3165.32838,0.85298
3164.84623,0.85307
3164.36408,0.85316
3163.88193,0.85321
3163.39977,0.85321
3162.91762,0.85318
3162.43547,0.85311
3161.95332,0.85304
3161.47117,0.853
3160.98901,0.85303
3160.50686,0.85313
3160.02471,0.85324
3159.54256,0.85333
3159.06041,0.8534
3158.57825,0.85345
3158.0961,0.85352
3157.61395,0.8536
3157.1318,0.85365
3156.64964,0.85367
3156.16749,0.85364
3155.68534,0.85361
3155.20319,0.85367
3154.72104,0.85383
3154.23888,0.85405
3153.75673,0.85439
3153.27458,0.85491
3152.79243,0.85542
3152.31028,0.85561
3151.82812,0.85538
3151.34597,0.85491
3150.86382,0.85449
3150.38167,0.85424
3149.89952,0.85412
3149.41736,0.8541
3148.93521,0.85414
3148.45306,0.85412
3147.97091,0.85409
3147.48876,0.85413
3147.0066,0.85422
3146.52445,0.85427
3146.0423,0.85424
3145.56015,0.8542
3145.07799,0.85425
3144.59584,0.85433
3144.11369,0.85442
3143.63154,0.85456
3143.14939,0.85471
3142.66723,0.85475
3142.18508,0.85466
3141.70293,0.85463
3141.22078,0.85475
3140.73863,0.85506
3140.25647,0.85547
3139.77432,0.85577
3139.29217,0.85575
3138.81002,0.85551
3138.32787,0.85526
3137.84571,0.85508
3137.36356,0.85493
3136.88141,0.85482
3136.39926,0.85478
3135.91711,0.85477
3135.43495,0.85475
3134.9528,0.85481
3134.47065,0.85518
3133.9885,0.8563
3133.50635,0.85775
3133.02419,0.85808
3132.54204,0.85708
3132.05989,0.85602
3131.57774,0.85544
3131.09558,0.85524
3130.61343,0.85537
3130.13128,0.85558
3129.64913,0.85557
3129.16698,0.85541
3128.68482,0.85534
3128.20267,0.85546
3127.72052,0.85591
3127.23837,0.8566
3126.75622,0.85697
3126.27406,0.85681
3125.79191,0.85646
3125.30976,0.85611
3124.82761,0.85579
3124.34546,0.85566
3123.8633,0.85615
3123.38115,0.85752
3122.899,0.85892
3122.41685,0.859
3121.9347,0.85808
3121.45254,0.85741
3120.97039,0.85726
3120.48824,0.85736
3120.00609,0.85784
3119.52393,0.85871
3119.04178,0.85922
3118.55963,0.85899
3118.07748,0.85847
3117.59533,0.85812
3117.11317,0.85825
3116.63102,0.85912
3116.14887,0.86
3115.66672,0.85986
3115.18457,0.85896
3114.70241,0.85798
3114.22026,0.85703
3113.73811,0.85638
3113.25596,0.85635
3112.77381,0.85669
3112.29165,0.85678
3111.8095,0.85649
3111.32735,0.85631
3110.8452,0.85646
3110.36305,0.85675
3109.88089,0.85697
3109.39874,0.85713
3108.91659,0.8573
3108.43444,0.8574
3107.95228,0.85739
3107.47013,0.85719
3106.98798,0.85678
3106.50583,0.85638
3106.02368,0.85616
3105.54152,0.85607
3105.05937,0.85606
3104.57722,0.85618
3104.09507,0.85658
3103.61292,0.85727
3103.13076,0.85773
3102.64861,0.85776
3102.16646,0.85806
3101.68431,0.85897
3101.20216,0.85952
3100.72,0.85928
3100.23785,0.85899
3099.7557,0.85875
3099.27355,0.85809
3098.7914,0.85706
3098.30924,0.85612
3097.82709,0.85579
3097.34494,0.85641
3096.86279,0.85782
3096.38064,0.85918
3095.89848,0.85934
3095.41633,0.85847
3094.93418,0.85771
3094.45203,0.85739
3093.96987,0.85726
3093.48772,0.85709
3093.00557,0.85688
3092.52342,0.85675
3092.04127,0.85673
3091.55911,0.85692
3091.07696,0.85732
3090.59481,0.85764
3090.11266,0.85756
3089.63051,0.85725
3089.14835,0.85703
3088.6662,0.85696
3088.18405,0.85711
3087.7019,0.85746
3087.21975,0.85762
3086.73759,0.85693
3086.25544,0.85546
3085.77329,0.8547
3085.29114,0.85561
3084.80899,0.85709
3084.32683,0.85776
3083.84468,0.85756
3083.36253,0.85737
3082.88038,0.85767
3082.39822,0.85815
3081.91607,0.85873
3081.43392,0.85928
3080.95177,0.8596
3080.46962,0.86002
3079.98746,0.86039
3079.50531,0.86022
3079.02316,0.85992
3078.54101,0.86005
3078.05886,0.85998
3077.5767,0.85927
3077.09455,0.85846
3076.6124,0.85786
3076.13025,0.85749
3075.6481,0.85729
3075.16594,0.85714
3074.68379,0.85699
3074.20164,0.8563
3073.71949,0.85377
3073.23734,0.85048
3072.75518,0.85019
3072.27303,0.85285
3071.79088,0.85501
3071.30873,0.85522
3070.82658,0.85462
3070.34442,0.85483
3069.86227,0.85587
3069.38012,0.85679
3068.89797,0.85749
3068.41581,0.85831
3067.93366,0.85947
3067.45151,0.86059
3066.96936,0.86083
3066.48721,0.86006
3066.00505,0.85911
3065.5229,0.85887
3065.04075,0.85969
3064.5586,0.86046
3064.07645,0.86002
3063.59429,0.85891
3063.11214,0.85802
3062.62999,0.85752
3062.14784,0.85734
3061.66569,0.85734
3061.18353,0.85737
3060.70138,0.85631
3060.21923,0.8509
3059.73708,0.84294
3059.25493,0.84131
3058.77277,0.8472
3058.29062,0.85266
3057.80847,0.85368
3057.32632,0.85304
3056.84416,0.85448
3056.36201,0.85717
3055.87986,0.85841
3055.39771,0.85845
3054.91556,0.85828
3054.4334,0.85803
3053.95125,0.85782
3053.4691,0.85772
3052.98695,0.85769
3052.5048,0.85777
3052.02264,0.85809
3051.54049,0.85851
3051.05834,0.85868
3050.57619,0.85852
3050.09404,0.85854
3049.61188,0.85913
3049.12973,0.85975
3048.64758,0.85964
3048.16543,0.85894
3047.68328,0.85835
3047.20112,0.85803
3046.71897,0.85738
3046.23682,0.85184
3045.75467,0.83728
3045.27252,0.8252
3044.79036,0.82969
3044.30821,0.84274
3043.82606,0.84925
3043.34391,0.84751
3042.86175,0.84561
3042.3796,0.84901
3041.89745,0.85402
3041.4153,0.85691
3040.93315,0.85827
3040.45099,0.85877
3039.96884,0.85871
3039.48669,0.85842
3039.00454,0.85827
3038.52239,0.85817
3038.04023,0.85817
3037.55808,0.85819
3037.07593,0.85825
3036.59378,0.85866
3036.11163,0.85924
3035.62947,0.85986
3035.14732,0.86048
3034.66517,0.86103
3034.18302,0.86088
3033.70087,0.86016
3033.21871,0.85973
3032.73656,0.86027
3032.25441,0.86141
3031.77226,0.86094
3031.2901,0.85119
3030.80795,0.82501
3030.3258,0.80182
3029.84365,0.80758
3029.3615,0.82983
3028.87934,0.84106
3028.39719,0.83666
3027.91504,0.83209
3027.43289,0.8383
3026.95074,0.84875
3026.46858,0.85546
3025.98643,0.85852
3025.50428,0.85956
3025.02213,0.85963
3024.53998,0.85942
3024.05782,0.85905
3023.57567,0.85881
3023.09352,0.85884
3022.61137,0.85896
3022.12922,0.85903
3021.64706,0.85894
3021.16491,0.85888
3020.68276,0.85889
3020.20061,0.85903
3019.71845,0.85916
3019.2363,0.85914
3018.75415,0.85905
3018.272,0.85904
3017.78985,0.8592
3017.30769,0.8593
3016.82554,0.85929
3016.34339,0.85905
3015.86124,0.85313
3015.37909,0.8253
3014.89693,0.78153
3014.41478,0.76692
3013.93263,0.79539
3013.45048,0.82622
3012.96833,0.82997
3012.48617,0.81892
3012.00402,0.8201
3011.52187,0.83612
3011.03972,0.85037
3010.55757,0.85713
3010.07541,0.8593
3009.59326,0.85932
3009.11111,0.85893
3008.62896,0.85868
3008.14681,0.85858
3007.66465,0.85847
3007.1825,0.85848
3006.70035,0.85853
3006.2182,0.85867
3005.73604,0.859
3005.25389,0.85934
3004.77174,0.85958
3004.28959,0.85948
3003.80744,0.85924
3003.32528,0.85889
3002.84313,0.8585
3002.36098,0.85821
3001.87883,0.85798
3001.39668,0.85779
3000.91452,0.85748
3000.43237,0.8569
2999.95022,0.85534
2999.46807,0.84435
2998.98592,0.80256
2998.50376,0.74214
2998.02161,0.72532
2997.53946,0.76619
2997.05731,0.80599
2996.57516,0.80684
2996.093,0.79119
2995.61085,0.79697
2995.1287,0.82256
2994.64655,0.8433
2994.16439,0.85299
2993.68224,0.85662
2993.20009,0.85782
2992.71794,0.85816
2992.23579,0.85808
2991.75363,0.85769
2991.27148,0.85727
2990.78933,0.85709
2990.30718,0.85691
2989.82503,0.85679
2989.34287,0.85665
2988.86072,0.85672
2988.37857,0.85686
2987.89642,0.85689
2987.41427,0.85661
2986.93211,0.85593
2986.44996,0.85528
2985.96781,0.8546
2985.48566,0.85414
2985.00351,0.85374
2984.52135,0.8533
2984.0392,0.85267
2983.55705,0.85171
2983.0749,0.8499
2982.59275,0.84154
2982.11059,0.80314
2981.62844,0.72685
2981.14629,0.67725
2980.66414,0.70756
2980.18198,0.76649
2979.69983,0.78375
2979.21768,0.76413
2978.73553,0.7599
2978.25338,0.78789
2977.77122,0.81807
2977.28907,0.83325
2976.80692,0.83851
2976.32477,0.8393
2975.84262,0.8386
2975.36046,0.8376
2974.87831,0.83636
2974.39616,0.83482
2973.91401,0.83338
2973.43186,0.83214
2972.9497,0.83091
2972.46755,0.82981
2971.9854,0.829
2971.50325,0.82857
2971.0211,0.82845
2970.53894,0.8287
2970.05679,0.82923
2969.57464,0.82986
2969.09249,0.83061
2968.61033,0.83152
2968.12818,0.83258
2967.64603,0.83372
2967.16388,0.83487
2966.68173,0.83592
2966.19957,0.83679
2965.71742,0.837
2965.23527,0.83499
2964.75312,0.81974
2964.27097,0.76228
2963.78881,0.67442
2963.30666,0.6416
2962.82451,0.69524
2962.34236,0.75597
2961.86021,0.76111
2961.37805,0.74031
2960.8959,0.75105
2960.41375,0.7916
2959.9316,0.82486
2959.44945,0.84117
2958.96729,0.84786
2958.48514,0.85032
2958.00299,0.8514
2957.52084,0.85204
2957.03869,0.85259
2956.55653,0.85292
2956.07438,0.85337
2955.59223,0.85373
2955.11008,0.85422
2954.62792,0.85458
2954.14577,0.85477
2953.66362,0.85509
2953.18147,0.85544
2952.69932,0.85589
2952.21716,0.85587
2951.73501,0.85575
2951.25286,0.85555
2950.77071,0.85549
2950.28856,0.85557
2949.8064,0.85552
2949.32425,0.85552
2948.8421,0.85533
2948.35995,0.85523
2947.8778,0.85492
2947.39564,0.85397
2946.91349,0.85069
2946.43134,0.83499
2945.94919,0.77736
2945.46704,0.68231
2944.98488,0.63669
2944.50273,0.68582
2944.02058,0.75274
2943.53843,0.76323
2943.05627,0.74191
2942.57412,0.75077
2942.09197,0.79226
2941.60982,0.82796
2941.12767,0.84555
2940.64551,0.85263
2940.16336,0.85491
2939.68121,0.8556
2939.19906,0.85591
2938.71691,0.85611
2938.23475,0.85625
2937.7526,0.85638
2937.27045,0.85642
2936.7883,0.85639
2936.30615,0.85637
2935.82399,0.85643
2935.34184,0.85647
2934.85969,0.85644
2934.37754,0.85637
2933.89539,0.85629
2933.41323,0.85617
2932.93108,0.85598
2932.44893,0.85583
2931.96678,0.85569
2931.48462,0.85567
2931.00247,0.85572
2930.52032,0.8559
2930.03817,0.8559
2929.55602,0.85541
2929.07386,0.85442
2928.59171,0.85312
2928.10956,0.85096
2927.62741,0.84403
2927.14526,0.81152
2926.6631,0.73218
2926.18095,0.65715
2925.6988,0.66635
2925.21665,0.73342
2924.7345,0.76955
2924.25234,0.75801
2923.77019,0.75291
2923.28804,0.78257
2922.80589,0.81931
2922.32374,0.84051
2921.84158,0.84955
2921.35943,0.85275
2920.87728,0.8538
2920.39513,0.85418
2919.91298,0.85451
2919.43082,0.85481
2918.94867,0.85508
2918.46652,0.85525
2917.98437,0.85525
2917.50221,0.85545
2917.02006,0.85563
2916.53791,0.85574
2916.05576,0.85561
2915.57361,0.85555
2915.09145,0.85579
2914.6093,0.8562
2914.12715,0.85665
2913.645,0.85672
2913.16285,0.85656
2912.68069,0.85619
2912.19854,0.85593
2911.71639,0.85584
2911.23424,0.85585
2910.75209,0.85591
2910.26993,0.85573
2909.78778,0.85551
2909.30563,0.85513
2908.82348,0.85456
2908.34133,0.8531
2907.85917,0.84622
2907.37702,0.81515
2906.89487,0.75256
2906.41272,0.71004
2905.93056,0.73333
2905.44841,0.78215
2904.96626,0.7998
2904.48411,0.79269
2904.00196,0.79757
2903.5198,0.82035
2903.03765,0.84096
2902.5555,0.85145
2902.07335,0.85581
2901.5912,0.85728
2901.10904,0.85775
2900.62689,0.85794
2900.14474,0.85818
2899.66259,0.8584
2899.18044,0.8586
2898.69828,0.85873
2898.21613,0.85886
2897.73398,0.85903
2897.25183,0.85917
2896.76968,0.85947
2896.28752,0.85978
2895.80537,0.85988
2895.32322,0.85976
2894.84107,0.85968
2894.35892,0.85967
2893.87676,0.85966
2893.39461,0.8597
2892.91246,0.85972
2892.43031,0.85976
2891.94815,0.85978
2891.466,0.85985
2890.98385,0.85999
2890.5017,0.86014
2890.01955,0.86017
2889.53739,0.86009
2889.05524,0.86007
2888.57309,0.8601
2888.09094,0.86015
2887.60879,0.86021
2887.12663,0.86029
2886.64448,0.86036
2886.16233,0.86039
2885.68018,0.86042
2885.19803,0.86044
2884.71587,0.86044
2884.23372,0.86045
2883.75157,0.86048
2883.26942,0.86053
2882.78727,0.86056
2882.30511,0.86055
2881.82296,0.86053
2881.34081,0.86055
2880.85866,0.86059
2880.3765,0.86063
2879.89435,0.86066
2879.4122,0.86068
2878.93005,0.86067
2878.4479,0.86067
2877.96574,0.86068
2877.48359,0.86068
2877.00144,0.86066
2876.51929,0.86065
2876.03714,0.8607
2875.55498,0.86078
2875.07283,0.86097
2874.59068,0.86125
2874.10853,0.8616
2873.62638,0.86177
2873.14422,0.86162
2872.66207,0.86126
2872.17992,0.86092
2871.69777,0.86072
2871.21562,0.86054
2870.73346,0.86042
2870.25131,0.8603
2869.76916,0.86019
2869.28701,0.86008
2868.80486,0.85991
2868.3227,0.85961
2867.84055,0.85908
2867.3584,0.85807
2866.87625,0.85471
2866.39409,0.83617
2865.91194,0.78425
2865.42979,0.72748
2864.94764,0.72631
2864.46549,0.77172
2863.98333,0.80101
2863.50118,0.79889
2863.01903,0.79942
2862.53688,0.8188
2862.05473,0.84038
2861.57257,0.8524
2861.09042,0.85754
2860.60827,0.85944
2860.12612,0.86006
2859.64397,0.86015
2859.16181,0.86017
2858.67966,0.86012
2858.19751,0.86006
2857.71536,0.86
2857.23321,0.86001
2856.75105,0.86007
2856.2689,0.86
2855.78675,0.86002
2855.3046,0.86001
2854.82244,0.86004
2854.34029,0.86002
2853.85814,0.86004
2853.37599,0.86006
2852.89384,0.86002
2852.41168,0.86006
2851.92953,0.86002
2851.44738,0.86005
2850.96523,0.86001
2850.48308,0.86007
2850.00092,0.86012
2849.51877,0.86022
2849.03662,0.86041
2848.55447,0.86049
2848.07232,0.86051
2847.59016,0.86028
2847.10801,0.85992
2846.62586,0.85928
2846.14371,0.85823
2845.66156,0.85582
2845.1794,0.84479
2844.69725,0.7993
2844.2151,0.71591
2843.73295,0.66736
2843.25079,0.70369
2842.76864,0.76125
2842.28649,0.77297
2841.80434,0.76403
2841.32219,0.78147
2840.84003,0.81736
2840.35788,0.84332
2839.87573,0.85538
2839.39358,0.86015
2838.91143,0.86166
2838.42927,0.86209
2837.94712,0.86219
2837.46497,0.86226
2836.98282,0.86222
2836.50067,0.86221
2836.01851,0.86228
2835.53636,0.86249
2835.05421,0.8627
2834.57206,0.86271
2834.08991,0.86263
2833.60775,0.86259
2833.1256,0.86263
2832.64345,0.86265
2832.1613,0.86266
2831.67915,0.86266
2831.19699,0.86262
2830.71484,0.86263
2830.23269,0.86265
2829.75054,0.86268
2829.26838,0.86268
2828.78623,0.86263
2828.30408,0.86261
2827.82193,0.86258
2827.33978,0.86256
2826.85762,0.86245
2826.37547,0.86229
2825.89332,0.8621
2825.41117,0.86186
2824.92902,0.86151
2824.44686,0.86089
2823.96471,0.85965
2823.48256,0.85624
2823.00041,0.83887
2822.51826,0.77882
2822.0361,0.69115
2821.55395,0.66169
2821.0718,0.71392
2820.58965,0.76287
2820.1075,0.76203
2819.62534,0.75823
2819.14319,0.78747
2818.66104,0.82562
2818.17889,0.84816
2817.69673,0.85768
2817.21458,0.86098
2816.73243,0.86198
2816.25028,0.86235
2815.76813,0.8626
2815.28597,0.86278
2814.80382,0.86286
2814.32167,0.86296
2813.83952,0.86297
2813.35737,0.86312
2812.87521,0.86322
2812.39306,0.8633
2811.91091,0.86328
2811.42876,0.86329
2810.94661,0.86343
2810.46445,0.86355
2809.9823,0.86368
2809.50015,0.86363
2809.018,0.8636
2808.53585,0.86348
2808.05369,0.86339
2807.57154,0.86336
2807.08939,0.86337
2806.60724,0.86347
2806.12509,0.86344
2805.64293,0.86344
2805.16078,0.86333
2804.67863,0.86331
2804.19648,0.86329
2803.71432,0.86323
2803.23217,0.86307
2802.75002,0.86275
2802.26787,0.86239
2801.78572,0.86185
2801.30356,0.86083
2800.82141,0.85775
2800.33926,0.84073
2799.85711,0.78284
2799.37496,0.70259
2798.8928,0.68134
2798.41065,0.73238
2797.9285,0.77311
2797.44635,0.76947
2796.9642,0.76997
2796.48204,0.80047
2795.99989,0.83437
2795.51774,0.85276
2795.03559,0.86005
2794.55344,0.86237
2794.07128,0.86304
2793.58913,0.86337
2793.10698,0.86362
2792.62483,0.86385
2792.14267,0.864
2791.66052,0.86412
2791.17837,0.86417
2790.69622,0.8642
2790.21407,0.86429
2789.73191,0.86456
2789.24976,0.86482
2788.76761,0.86482
2788.28546,0.86463
2787.80331,0.86446
2787.32115,0.8644
2786.839,0.8644
2786.35685,0.86443
2785.8747,0.86445
2785.39255,0.86445
2784.91039,0.86448
2784.42824,0.86451
2783.94609,0.8645
2783.46394,0.86447
2782.98179,0.86444
2782.49963,0.86441
2782.01748,0.86435
2781.53533,0.86433
2781.05318,0.86432
2780.57103,0.86431
2780.08887,0.86425
2779.60672,0.8641
2779.12457,0.86386
2778.64242,0.86352
2778.16026,0.86284
2777.67811,0.86101
2777.19596,0.84981
2776.71381,0.80583
2776.23166,0.73793
2775.7495,0.71402
2775.26735,0.75412
2774.7852,0.79039
2774.30305,0.78935
2773.8209,0.78989
2773.33874,0.81448
2772.85659,0.84176
2772.37444,0.85636
2771.89229,0.86209
2771.41014,0.86383
2770.92798,0.8643
2770.44583,0.8645
2769.96368,0.86468
2769.48153,0.86479
2768.99938,0.8648
2768.51722,0.86483
2768.03507,0.86482
2767.55292,0.86492
2767.07077,0.865
2766.58861,0.86508
2766.10646,0.86508
2765.62431,0.86507
2765.14216,0.86514
2764.66001,0.86518
2764.17785,0.86521
2763.6957,0.86515
2763.21355,0.86518
2762.7314,0.86516
2762.24925,0.86516
2761.76709,0.8652
2761.28494,0.86524
2760.80279,0.86526
2760.32064,0.86519
2759.83849,0.86523
2759.35633,0.86523
2758.87418,0.86525
2758.39203,0.86526
2757.90988,0.86524
2757.42773,0.86519
2756.94557,0.86513
2756.46342,0.86516
2755.98127,0.86509
2755.49912,0.86495
2755.01696,0.86471
2754.53481,0.86443
2754.05266,0.86377
2753.57051,0.85888
2753.08836,0.83314
2752.6062,0.78258
2752.12405,0.75341
2751.6419,0.77649
2751.15975,0.80842
2750.6776,0.81251
2750.19544,0.81175
2749.71329,0.82774
2749.23114,0.84777
2748.74899,0.85908
2748.26684,0.86359
2747.78468,0.86505
2747.30253,0.86536
2746.82038,0.86539
2746.33823,0.86535
2745.85608,0.8654
2745.37392,0.86548
2744.89177,0.8655
2744.40962,0.86547
2743.92747,0.86552
2743.44532,0.86559
2742.96316,0.86563
2742.48101,0.86565
2741.99886,0.86564
2741.51671,0.86563
2741.03455,0.86562
2740.5524,0.86564
2740.07025,0.86569
2739.5881,0.8657
2739.10595,0.86569
2738.62379,0.86569
2738.14164,0.86571
2737.65949,0.86574
2737.17734,0.86577
2736.69519,0.86579
2736.21303,0.8658
2735.73088,0.86582
2735.24873,0.86582
2734.76658,0.86581
2734.28443,0.86579
2733.80227,0.86577
2733.32012,0.86579
2732.83797,0.86582
2732.35582,0.86581
2731.87367,0.86576
2731.39151,0.86572
2730.90936,0.86566
2730.42721,0.8656
2729.94506,0.86533
2729.4629,0.86393
2728.98075,0.85303
2728.4986,0.82274
2728.01645,0.79439
2727.5343,0.80033
2727.05214,0.82437
2726.56999,0.83283
2726.08784,0.83174
2725.60569,0.83972
2725.12354,0.85288
2724.64138,0.86121
2724.15923,0.8645
2723.67708,0.86555
2723.19493,0.86585
2722.71278,0.86607
2722.23062,0.86613
2721.74847,0.86608
2721.26632,0.86599
2720.78417,0.866
2720.30202,0.86606
2719.81986,0.86613
2719.33771,0.86618
2718.85556,0.86614
2718.37341,0.8661
2717.89126,0.86608
2717.4091,0.86614
2716.92695,0.86618
2716.4448,0.86622
2715.96265,0.86622
2715.48049,0.86619
2714.99834,0.86617
2714.51619,0.86613
2714.03404,0.86614
2713.55189,0.86618
2713.06973,0.86626
2712.58758,0.86629
2712.10543,0.86625
2711.62328,0.86626
2711.14113,0.8663
2710.65897,0.86633
2710.17682,0.86632
2709.69467,0.86633
2709.21252,0.86632
2708.73037,0.86633
2708.24821,0.86633
2707.76606,0.8663
2707.28391,0.86627
2706.80176,0.86625
2706.31961,0.86626
2705.83745,0.86623
2705.3553,0.86613
2704.87315,0.86587
2704.391,0.86283
2703.90884,0.84929
2703.42669,0.82902
2702.94454,0.82386
2702.46239,0.83691
2701.98024,0.84652
2701.49808,0.84696
2701.01593,0.84983
2700.53378,0.85712
2700.05163,0.86281
2699.56948,0.8653
2699.08732,0.86615
2698.60517,0.86636
2698.12302,0.86642
2697.64087,0.86646
2697.15872,0.8665
2696.67656,0.86655
2696.19441,0.86656
2695.71226,0.86651
2695.23011,0.86646
2694.74796,0.86648
2694.2658,0.8665
2693.78365,0.86651
2693.3015,0.8665
2692.81935,0.86653
2692.3372,0.86659
2691.85504,0.86662
2691.37289,0.8666
2690.89074,0.86657
2690.40859,0.8666
2689.92643,0.86662
2689.44428,0.86659
2688.96213,0.86658
2688.47998,0.86661
2687.99783,0.86666
2687.51567,0.86667
2687.03352,0.86663
2686.55137,0.86657
2686.06922,0.86654
2685.58707,0.86654
2685.10491,0.86655
2684.62276,0.86657
2684.14061,0.86658
2683.65846,0.8666
2683.17631,0.86663
2682.69415,0.86665
2682.212,0.86666
2681.72985,0.86671
2681.2477,0.86677
2680.76555,0.86676
2680.28339,0.86671
2679.80124,0.86663
2679.31909,0.8661
2678.83694,0.86187
2678.35478,0.85169
2677.87263,0.84438
2677.39048,0.84828
2676.90833,0.85532
2676.42618,0.85715
2675.94402,0.85784
2675.46187,0.86105
2674.97972,0.86437
2674.49757,0.86605
2674.01542,0.86667
2673.53326,0.86685
2673.05111,0.86684
2672.56896,0.86682
2672.08681,0.86678
2671.60466,0.86677
2671.1225,0.86679
2670.64035,0.86684
2670.1582,0.86686
2669.67605,0.86687
2669.1939,0.86689
2668.71174,0.86691
2668.22959,0.86695
2667.74744,0.86693
2667.26529,0.86689
2666.78313,0.8669
2666.30098,0.86698
2665.81883,0.86703
2665.33668,0.86701
2664.85453,0.867
2664.37237,0.86699
2663.89022,0.86698
2663.40807,0.86698
2662.92592,0.86697
2662.44377,0.86695
2661.96161,0.86697
2661.47946,0.86702
2660.99731,0.86704
2660.51516,0.86703
2660.03301,0.86699
2659.55085,0.86696
2659.0687,0.86695
2658.58655,0.86697
2658.1044,0.86699
2657.62225,0.86702
2657.14009,0.86706
2656.65794,0.8671
2656.17579,0.86713
2655.69364,0.86715
2655.21149,0.86717
2654.72933,0.86719
2654.24718,0.86718
2653.76503,0.86713
2653.28288,0.86624
2652.80072,0.86267
2652.31857,0.858
2651.83642,0.85749
2651.35427,0.86076
2650.87212,0.86273
2650.38996,0.86309
2649.90781,0.86423
2649.42566,0.86581
2648.94351,0.86676
2648.46136,0.86715
2647.9792,0.86728
2647.49705,0.86727
2647.0149,0.86724
2646.53275,0.86727
2646.0506,0.86733
2645.56844,0.86739
2645.08629,0.86744
2644.60414,0.86742
2644.12199,0.86735
2643.63984,0.86729
2643.15768,0.86733
2642.67553,0.86742
2642.19338,0.86744
2641.71123,0.86741
2641.22907,0.86741
2640.74692,0.86745
2640.26477,0.86748
2639.78262,0.86749
2639.30047,0.86751
2638.81831,0.86756
2638.33616,0.8676
2637.85401,0.86756
2637.37186,0.86749
2636.88971,0.86748
2636.40755,0.86751
2635.9254,0.86752
2635.44325,0.86751
2634.9611,0.86751
2634.47895,0.86752
2633.99679,0.86755
2633.51464,0.86759
2633.03249,0.86757
2632.55034,0.86751
2632.06819,0.86745
2631.58603,0.86745
2631.10388,0.8675
2630.62173,0.86755
2630.13958,0.8676
2629.65743,0.86763
2629.17527,0.86765
2628.69312,0.86766
2628.21097,0.86764
2627.72882,0.86763
2627.24666,0.86753
2626.76451,0.86666
2626.28236,0.86479
2625.80021,0.86373
2625.31806,0.8646
2624.8359,0.86575
2624.35375,0.86611
2623.8716,0.86644
2623.38945,0.86702
2622.9073,0.86745
2622.42514,0.86766
2621.94299,0.86775
2621.46084,0.86781
2620.97869,0.86788
2620.49654,0.86791
2620.01438,0.86788
2619.53223,0.86786
2619.05008,0.8679
2618.56793,0.86796
2618.08578,0.86798
2617.60362,0.86798
2617.12147,0.86793
2616.63932,0.86783
2616.15717,0.86777
2615.67501,0.8678
2615.19286,0.86783
2614.71071,0.86786
2614.22856,0.8679
2613.74641,0.86791
2613.26425,0.86789
2612.7821,0.86786
2612.29995,0.86785
2611.8178,0.86789
2611.33565,0.86792
2610.85349,0.86792
2610.37134,0.86794
2609.88919,0.86796
2609.40704,0.86796
2608.92489,0.86797
2608.44273,0.86798
2607.96058,0.86794
2607.47843,0.86787
2606.99628,0.86787
2606.51413,0.86795
2606.03197,0.86803
2605.54982,0.86807
2605.06767,0.86805
2604.58552,0.86803
2604.10337,0.86804
2603.62121,0.86805
2603.13906,0.86805
2602.65691,0.86805
2602.17476,0.86806
2601.6926,0.86806
2601.21045,0.86805
2600.7283,0.86806
2600.24615,0.86797
2599.764,0.86748
2599.28184,0.86688
2598.79969,0.86689
2598.31754,0.86733
2597.83539,0.86758
2597.35324,0.86771
2596.87108,0.8679
2596.38893,0.86805
2595.90678,0.86812
2595.42463,0.86816
2594.94248,0.86822
2594.46032,0.86827
2593.97817,0.86827
2593.49602,0.86822
2593.01387,0.86819
2592.53172,0.86817
2592.04956,0.86817
2591.56741,0.86821
2591.08526,0.86826
2590.60311,0.86827
2590.12095,0.86824
2589.6388,0.86822
2589.15665,0.86826
2588.6745,0.86833
2588.19235,0.8684
2587.71019,0.86842
2587.22804,0.86839
2586.74589,0.86837
2586.26374,0.86835
2585.78159,0.86832
2585.29943,0.86832
2584.81728,0.86836
2584.33513,0.86841
2583.85298,0.86846
2583.37083,0.86847
2582.88867,0.86843
2582.40652,0.86837
2581.92437,0.86836
2581.44222,0.86841
2580.96007,0.86844
2580.47791,0.86847
2579.99576,0.86849
2579.51361,0.8685
2579.03146,0.8685
2578.5493,0.86849
2578.06715,0.86847
2577.585,0.86849
2577.10285,0.86855
2576.6207,0.8686
2576.13854,0.86862
2575.65639,0.86861
2575.17424,0.86861
2574.69209,0.86861
2574.20994,0.86857
2573.72778,0.86852
2573.24563,0.86843
2572.76348,0.86829
2572.28133,0.86812
2571.79918,0.86811
2571.31702,0.86826
2570.83487,0.86839
2570.35272,0.8684
2569.87057,0.86844
2569.38842,0.86856
2568.90626,0.86864
2568.42411,0.86862
2567.94196,0.86855
2567.45981,0.86855
2566.97766,0.86859
2566.4955,0.86863
2566.01335,0.86864
2565.5312,0.86865
2565.04905,0.86867
2564.56689,0.86869
2564.08474,0.86872
2563.60259,0.86875
2563.12044,0.86873
2562.63829,0.86871
2562.15613,0.86871
2561.67398,0.86873
2561.19183,0.86874
2560.70968,0.86877
2560.22753,0.86879
2559.74537,0.86877
2559.26322,0.86876
2558.78107,0.86879
2558.29892,0.86884
2557.81677,0.86887
2557.33461,0.86888
2556.85246,0.86886
2556.37031,0.86884
2555.88816,0.86884
2555.40601,0.86883
2554.92385,0.86886
2554.4417,0.86893
2553.95955,0.86896
2553.4774,0.86894
2552.99524,0.86894
2552.51309,0.86897
2552.03094,0.86902
2551.54879,0.86904
2551.06664,0.86902
2550.58448,0.86899
2550.10233,0.86902
2549.62018,0.86907
2549.13803,0.8691
2548.65588,0.8691
2548.17372,0.86911
2547.69157,0.86913
2547.20942,0.86914
2546.72727,0.86914
2546.24512,0.86914
2545.76296,0.86913
2545.28081,0.86909
2544.79866,0.86902
2544.31651,0.86895
2543.83436,0.86896
2543.3522,0.86898
2542.87005,0.869
2542.3879,0.86904
2541.90575,0.86909
2541.4236,0.86913
2540.94144,0.86917
2540.45929,0.86922
2539.97714,0.86928
2539.49499,0.86931
2539.01283,0.8693
2538.53068,0.86928
2538.04853,0.86931
2537.56638,0.86935
2537.08423,0.86934
2536.60207,0.86934
2536.11992,0.86936
2535.63777,0.86937
2535.15562,0.86934
2534.67347,0.86936
2534.19131,0.86944
2533.70916,0.8695
2533.22701,0.86954
2532.74486,0.86955
2532.26271,0.86952
2531.78055,0.8695
2531.2984,0.86951
2530.81625,0.86952
2530.3341,0.86949
2529.85195,0.86945
2529.36979,0.86942
2528.88764,0.86942
2528.40549,0.86945
2527.92334,0.86947
2527.44118,0.86945
2526.95903,0.86946
2526.47688,0.8695
2525.99473,0.86955
2525.51258,0.86957
2525.03042,0.86958
2524.54827,0.86957
2524.06612,0.86955
2523.58397,0.86953
2523.10182,0.86954
2522.61966,0.86953
2522.13751,0.86951
2521.65536,0.86952
2521.17321,0.86953
2520.69106,0.86955
2520.2089,0.86954
2519.72675,0.86952
2519.2446,0.86953
2518.76245,0.86954
2518.2803,0.86953
2517.79814,0.86956
2517.31599,0.86958
2516.83384,0.8696
2516.35169,0.8696
2515.86954,0.86959
2515.38738,0.86959
2514.90523,0.86958
2514.42308,0.86956
2513.94093,0.86957
2513.45877,0.86962
2512.97662,0.86963
2512.49447,0.8696
2512.01232,0.86959
2511.53017,0.86961
2511.04801,0.86959
2510.56586,0.86953
2510.08371,0.86952
2509.60156,0.86954
2509.11941,0.86956
2508.63725,0.8696
2508.1551,0.86964
2507.67295,0.86966
2507.1908,0.86968
2506.70865,0.86969
2506.22649,0.86969
2505.74434,0.86969
2505.26219,0.86966
2504.78004,0.86964
2504.29789,0.86963
2503.81573,0.86966
2503.33358,0.86969
2502.85143,0.8697
2502.36928,0.8697
2501.88712,0.86972
2501.40497,0.86975
2500.92282,0.8698
2500.44067,0.86983
2499.95852,0.86984
2499.47636,0.86984
2498.99421,0.86983
2498.51206,0.8698
2498.02991,0.86977
2497.54776,0.8698
2497.0656,0.86986
2496.58345,0.86988
2496.1013,0.86984
2495.61915,0.8698
2495.137,0.86983
2494.65484,0.86988
2494.17269,0.8699
2493.69054,0.86993
2493.20839,0.86994
2492.72624,0.86991
2492.24408,0.8699
2491.76193,0.86991
2491.27978,0.86995
2490.79763,0.87001
2490.31548,0.87008
2489.83332,0.87011
2489.35117,0.87011
2488.86902,0.8701
2488.38687,0.87008
2487.90471,0.87004
2487.42256,0.87002
2486.94041,0.87003
2486.45826,0.87004
2485.97611,0.87004
2485.49395,0.87005
2485.0118,0.87009
2484.52965,0.87011
2484.0475,0.8701
2483.56535,0.8701
2483.08319,0.87013
2482.60104,0.87015
2482.11889,0.87015
2481.63674,0.87015
2481.15459,0.87015
2480.67243,0.87013
2480.19028,0.87011
2479.70813,0.87013
2479.22598,0.87019
2478.74383,0.87023
2478.26167,0.87024
2477.77952,0.87026
2477.29737,0.87027
2476.81522,0.87026
2476.33306,0.87024
2475.85091,0.87026
2475.36876,0.87029
2474.88661,0.87031
2474.40446,0.8703
2473.9223,0.87029
2473.44015,0.87032
2472.958,0.87034
2472.47585,0.87035
2471.9937,0.87035
2471.51154,0.87036
2471.02939,0.87041
2470.54724,0.87043
2470.06509,0.87041
2469.58294,0.87037
2469.10078,0.87032
2468.61863,0.87029
2468.13648,0.87031
2467.65433,0.87037
2467.17218,0.87042
2466.69002,0.87041
2466.20787,0.87039
2465.72572,0.8704
2465.24357,0.87046
2464.76141,0.87051
2464.27926,0.87053
2463.79711,0.87053
2463.31496,0.87054
2462.83281,0.87055
2462.35065,0.87054
2461.8685,0.87054
2461.38635,0.87057
2460.9042,0.87058
2460.42205,0.87058
2459.93989,0.8706
2459.45774,0.87066
2458.97559,0.8707
2458.49344,0.87067
2458.01129,0.87063
2457.52913,0.87064
2457.04698,0.87069
2456.56483,0.8707
2456.08268,0.87068
2455.60053,0.87067
2455.11837,0.87068
2454.63622,0.87069
2454.15407,0.87072
2453.67192,0.87073
2453.18977,0.87072
2452.70761,0.87072
2452.22546,0.87074
2451.74331,0.87075
2451.26116,0.87072
2450.779,0.87069
2450.29685,0.87069
2449.8147,0.87069
2449.33255,0.87066
2448.8504,0.87064
2448.36824,0.8707
2447.88609,0.87078
2447.40394,0.8708
2446.92179,0.87078
2446.43964,0.87079
2445.95748,0.8708
2445.47533,0.87078
2444.99318,0.87078
2444.51103,0.87081
2444.02888,0.87083
2443.54672,0.87083
2443.06457,0.87086
2442.58242,0.87089
2442.10027,0.87089
2441.61812,0.87087
2441.13596,0.87087
2440.65381,0.8709
2440.17166,0.87092
2439.68951,0.87091
2439.20735,0.87091
2438.7252,0.87093
2438.24305,0.87093
2437.7609,0.87091
2437.27875,0.87092
2436.79659,0.87095
2436.31444,0.87097
2435.83229,0.87098
2435.35014,0.87099
2434.86799,0.871
2434.38583,0.87101
2433.90368,0.87104
2433.42153,0.87107
2432.93938,0.87107
2432.45723,0.87105
2431.97507,0.87104
2431.49292,0.87105
2431.01077,0.87107
2430.52862,0.87109
2430.04647,0.87106
2429.56431,0.87102
2429.08216,0.87104
2428.60001,0.8711
2428.11786,0.87115
2427.63571,0.87118
2427.15355,0.87119
2426.6714,0.87117
2426.18925,0.87116
2425.7071,0.8712
2425.22494,0.87124
2424.74279,0.87124
2424.26064,0.87124
2423.77849,0.87124
2423.29634,0.87122
2422.81418,0.87119
2422.33203,0.87119
2421.84988,0.87123
2421.36773,0.87128
2420.88558,0.87129
2420.40342,0.87126
2419.92127,0.87122
2419.43912,0.8712
2418.95697,0.87121
2418.47482,0.87124
2417.99266,0.87128
2417.51051,0.87129
2417.02836,0.87128
2416.54621,0.87127
2416.06406,0.87126
2415.5819,0.87127
2415.09975,0.8713
2414.6176,0.87135
2414.13545,0.87138
2413.65329,0.87138
2413.17114,0.87139
2412.68899,0.8714
2412.20684,0.87141
2411.72469,0.87141
2411.24253,0.87139
2410.76038,0.87135
2410.27823,0.87135
2409.79608,0.8714
2409.31393,0.87141
2408.83177,0.87139
2408.34962,0.87137
2407.86747,0.87136
2407.38532,0.87135
2406.90317,0.87139
2406.42101,0.87143
2405.93886,0.87145
2405.45671,0.87147
2404.97456,0.87149
2404.49241,0.87145
2404.01025,0.87142
2403.5281,0.87147
2403.04595,0.87154
2402.5638,0.87158
2402.08165,0.87159
2401.59949,0.87155
2401.11734,0.8715
2400.63519,0.87148
2400.15304,0.8715
2399.67088,0.87155
2399.18873,0.8716
2398.70658,0.87162
2398.22443,0.87163
2397.74228,0.87162
2397.26012,0.87159
2396.77797,0.87159
2396.29582,0.87164
2395.81367,0.8717
2395.33152,0.87171
2394.84936,0.87168
2394.36721,0.87166
2393.88506,0.87167
2393.40291,0.87169
2392.92076,0.8717
2392.4386,0.87171
2391.95645,0.87171
2391.4743,0.8717
2390.99215,0.87171
2390.51,0.87176
2390.02784,0.87179
2389.54569,0.87178
2389.06354,0.87181
2388.58139,0.87184
2388.09923,0.87184
2387.61708,0.87185
2387.13493,0.87189
2386.65278,0.87197
2386.17063,0.87204
2385.68847,0.87211
2385.20632,0.87216
2384.72417,0.8722
2384.24202,0.87223
2383.75987,0.87223
2383.27771,0.8722
2382.79556,0.8722
2382.31341,0.87227
2381.83126,0.87232
2381.34911,0.87231
2380.86695,0.87224
2380.3848,0.87215
2379.90265,0.87206
2379.4205,0.87195
2378.93835,0.8718
2378.45619,0.8716
2377.97404,0.87139
2377.49189,0.87117
2377.00974,0.87098
2376.52758,0.87077
2376.04543,0.87052
2375.56328,0.8702
2375.08113,0.86978
2374.59898,0.86939
2374.11682,0.86903
2373.63467,0.86875
2373.15252,0.8684
2372.67037,0.86804
2372.18822,0.86771
2371.70606,0.86723
2371.22391,0.86689
2370.74176,0.86647
2370.25961,0.86607
2369.77746,0.86571
2369.2953,0.86522
2368.81315,0.86505
2368.331,0.86459
2367.84885,0.86424
2367.3667,0.86405
2366.88454,0.86341
2366.40239,0.86331
2365.92024,0.86285
2365.43809,0.8623
2364.95594,0.86235
2364.47378,0.86173
2363.99163,0.86166
2363.50948,0.86165
2363.02733,0.86091
2362.54517,0.8612
2362.06302,0.86103
2361.58087,0.86047
2361.09872,0.86098
2360.61657,0.86041
2360.13441,0.86007
2359.65226,0.86096
2359.17011,0.86043
2358.68796,0.86045
2358.20581,0.86133
2357.72365,0.86055
2357.2415,0.86076
2356.75935,0.86177
2356.2772,0.86102
2355.79505,0.86137
2355.31289,0.86247
2354.83074,0.8617
2354.34859,0.86216
2353.86644,0.86368
2353.38429,0.86328
2352.90213,0.86359
2352.41998,0.86517
2351.93783,0.86515
2351.45568,0.86537
2350.97352,0.8673
2350.49137,0.86842
2350.00922,0.86873
2349.52707,0.86976
2349.04492,0.87072
2348.56276,0.87018
2348.08061,0.86825
2347.59846,0.86713
2347.11631,0.86719
2346.63416,0.86585
2346.152,0.86414
2345.66985,0.86484
2345.1877,0.8649
2344.70555,0.86298
2344.2234,0.86319
2343.74124,0.86448
2343.25909,0.8631
2342.77694,0.86219
2342.29479,0.86406
2341.81264,0.86402
2341.33048,0.86204
2340.84833,0.86297
2340.36618,0.86446
2339.88403,0.86283
2339.40188,0.86202
2338.91972,0.86434
2338.43757,0.86447
2337.95542,0.8624
2337.47327,0.86334
2336.99111,0.86526
2336.50896,0.86393
2336.02681,0.8627
2335.54466,0.86505
2335.06251,0.86599
2334.58035,0.86392
2334.0982,0.86381
2333.61605,0.86627
2333.1339,0.86605
2332.65175,0.86398
2332.16959,0.86509
2331.68744,0.86718
2331.20529,0.86608
2330.72314,0.86448
2330.24099,0.86635
2329.75883,0.86786
2329.27668,0.86639
2328.79453,0.86555
2328.31238,0.86779
2327.83023,0.86878
2327.34807,0.86726
2326.86592,0.86689
2326.38377,0.86885
2325.90162,0.86923
2325.41946,0.86757
2324.93731,0.86749
2324.45516,0.86957
2323.97301,0.86998
2323.49086,0.86849
2323.0087,0.86849
2322.52655,0.87031
2322.0444,0.87058
2321.56225,0.86925
2321.0801,0.86927
2320.59794,0.87087
2320.11579,0.87116
2319.63364,0.87008
2319.15149,0.87005
2318.66934,0.87144
2318.18718,0.87187
2317.70503,0.87105
2317.22288,0.87088
2316.74073,0.8719
2316.25858,0.87236
2315.77642,0.87172
2315.29427,0.87136
2314.81212,0.87209
2314.32997,0.87266
2313.84782,0.87232
2313.36566,0.87199
2312.88351,0.87251
2312.40136,0.87308
2311.91921,0.87297
2311.43705,0.87265
2310.9549,0.87287
2310.47275,0.8733
2309.9906,0.87327
2309.50845,0.87295
2309.02629,0.87299
2308.54414,0.87336
2308.06199,0.87351
2307.57984,0.87337
2307.09769,0.87334
2306.61553,0.87353
2306.13338,0.87365
2305.65123,0.87356
2305.16908,0.87348
2304.68693,0.87354
2304.20477,0.8736
2303.72262,0.87355
2303.24047,0.87346
2302.75832,0.87345
2302.27617,0.87351
2301.79401,0.87348
2301.31186,0.87341
2300.82971,0.87343
2300.34756,0.8735
2299.8654,0.8735
2299.38325,0.87343
2298.9011,0.87338
2298.41895,0.87345
2297.9368,0.8735
2297.45464,0.87342
2296.97249,0.87334
2296.49034,0.87332
2296.00819,0.87332
2295.52604,0.87331
2295.04388,0.87325
2294.56173,0.87325
2294.07958,0.87335
2293.59743,0.87333
2293.11528,0.87323
2292.63312,0.87322
2292.15097,0.87325
2291.66882,0.8733
2291.18667,0.87334
2290.70452,0.87332
2290.22236,0.87331
2289.74021,0.87337
2289.25806,0.87338
2288.77591,0.87337
2288.29375,0.87339
2287.8116,0.87339
2287.32945,0.87338
2286.8473,0.87341
2286.36515,0.87341
2285.88299,0.87339
2285.40084,0.87344
2284.91869,0.87351
2284.43654,0.87352
2283.95439,0.87349
2283.47223,0.87349
2282.99008,0.87351
2282.50793,0.87352
2282.02578,0.87353
2281.54363,0.87353
2281.06147,0.87349
2280.57932,0.87343
2280.09717,0.87343
2279.61502,0.87345
2279.13287,0.87342
2278.65071,0.8734
2278.16856,0.87343
2277.68641,0.87342
2277.20426,0.87337
2276.72211,0.87338
2276.23995,0.87341
2275.7578,0.87338
2275.27565,0.87338
2274.7935,0.87339
2274.31134,0.87333
2273.82919,0.8733
2273.34704,0.87338
2272.86489,0.87345
2272.38274,0.8734
2271.90058,0.87341
2271.41843,0.87348
2270.93628,0.87344
2270.45413,0.87337
2269.97198,0.8734
2269.48982,0.87344
2269.00767,0.87337
2268.52552,0.87331
2268.04337,0.87336
2267.56122,0.8734
2267.07906,0.87339
2266.59691,0.87343
2266.11476,0.87348
2265.63261,0.87347
2265.15046,0.87346
2264.6683,0.87351
2264.18615,0.87355
2263.704,0.8735
2263.22185,0.87342
2262.73969,0.87345
2262.25754,0.87355
2261.77539,0.87359
2261.29324,0.87362
2260.81109,0.87368
2260.32893,0.8737
2259.84678,0.87362
2259.36463,0.87362
2258.88248,0.87371
2258.40033,0.87373
2257.91817,0.87366
2257.43602,0.87362
2256.95387,0.87364
2256.47172,0.87367
2255.98957,0.8737
2255.50741,0.87374
2255.02526,0.87379
2254.54311,0.8738
2254.06096,0.87376
2253.57881,0.87377
2253.09665,0.8738
2252.6145,0.8738
2252.13235,0.87377
2251.6502,0.87377
2251.16805,0.87381
2250.68589,0.87386
2250.20374,0.8739
2249.72159,0.87388
2249.23944,0.87385
2248.75728,0.87385
2248.27513,0.87386
2247.79298,0.87386
2247.31083,0.87387
2246.82868,0.87392
2246.34652,0.87392
2245.86437,0.87386
2245.38222,0.87382
2244.90007,0.87385
2244.41792,0.87392
2243.93576,0.87396
2243.45361,0.87398
2242.97146,0.87399
2242.48931,0.87398
2242.00716,0.87397
2241.525,0.87396
2241.04285,0.87395
2240.5607,0.87396
2240.07855,0.87399
2239.5964,0.87399
2239.11424,0.87395
2238.63209,0.87394
2238.14994,0.87398
2237.66779,0.874
2237.18563,0.87401
2236.70348,0.87402
2236.22133,0.87406
2235.73918,0.87407
2235.25703,0.87405
2234.77487,0.87401
2234.29272,0.87398
2233.81057,0.87399
2233.32842,0.87402
2232.84627,0.87405
2232.36411,0.87405
2231.88196,0.87402
2231.39981,0.874
2230.91766,0.87399
2230.43551,0.874
2229.95335,0.87403
2229.4712,0.87402
2228.98905,0.87397
2228.5069,0.87391
2228.02475,0.87387
2227.54259,0.87387
2227.06044,0.8739
2226.57829,0.87393
2226.09614,0.87395
2225.61399,0.87398
2225.13183,0.87398
2224.64968,0.87397
2224.16753,0.874
2223.68538,0.87404
2223.20322,0.87401
2222.72107,0.87394
2222.23892,0.87391
2221.75677,0.87392
2221.27462,0.87394
2220.79246,0.87393
2220.31031,0.87391
2219.82816,0.87392
2219.34601,0.87398
2218.86386,0.87398
2218.3817,0.87392
2217.89955,0.87383
2217.4174,0.87376
2216.93525,0.87377
2216.4531,0.87384
2215.97094,0.87388
2215.48879,0.87387
2215.00664,0.87385
2214.52449,0.87386
2214.04234,0.87386
2213.56018,0.87383
2213.07803,0.87382
2212.59588,0.87385
2212.11373,0.87389
2211.63157,0.87391
2211.14942,0.87388
2210.66727,0.87382
2210.18512,0.87377
2209.70297,0.87376
2209.22081,0.87376
2208.73866,0.87375
2208.25651,0.87372
2207.77436,0.87366
2207.29221,0.87363
2206.81005,0.87365
2206.3279,0.8737
2205.84575,0.87372
2205.3636,0.87372
2204.88145,0.87369
2204.39929,0.87364
2203.91714,0.87358
2203.43499,0.87352
2202.95284,0.87349
2202.47069,0.87347
2201.98853,0.87341
2201.50638,0.87335
2201.02423,0.87332
2200.54208,0.87331
2200.05992,0.8733
2199.57777,0.87326
2199.09562,0.87317
2198.61347,0.87307
2198.13132,0.87301
2197.64916,0.87303
2197.16701,0.87305
2196.68486,0.87304
2196.20271,0.87298
2195.72056,0.87289
2195.2384,0.87279
2194.75625,0.87271
2194.2741,0.87267
2193.79195,0.87265
2193.3098,0.87259
2192.82764,0.87249
2192.34549,0.8724
2191.86334,0.87231
2191.38119,0.87222
2190.89904,0.87216
2190.41688,0.8721
2189.93473,0.87199
2189.45258,0.87188
2188.97043,0.8718
2188.48828,0.87176
2188.00612,0.87173
2187.52397,0.87172
2187.04182,0.87167
2186.55967,0.87153
2186.07751,0.87138
2185.59536,0.87129
2185.11321,0.87118
2184.63106,0.87103
2184.14891,0.87091
2183.66675,0.87087
2183.1846,0.8708
2182.70245,0.87066
2182.2203,0.87055
2181.73815,0.87047
2181.25599,0.87039
2180.77384,0.87033
2180.29169,0.87028
2179.80954,0.8702
2179.32739,0.87003
2178.84523,0.86984
2178.36308,0.8697
2177.88093,0.86962
2177.39878,0.86956
2176.91663,0.86953
2176.43447,0.86948
2175.95232,0.86938
2175.47017,0.86925
2174.98802,0.86914
2174.50586,0.86903
2174.02371,0.86894
2173.54156,0.86889
2173.05941,0.8689
2172.57726,0.86889
2172.0951,0.86877
2171.61295,0.86862
2171.1308,0.86851
2170.64865,0.86845
2170.1665,0.86844
2169.68434,0.86842
2169.20219,0.86837
2168.72004,0.86829
2168.23789,0.86823
2167.75574,0.86816
2167.27358,0.86809
2166.79143,0.86805
2166.30928,0.86806
2165.82713,0.86806
2165.34498,0.86803
2164.86282,0.86797
2164.38067,0.86792
2163.89852,0.86789
2163.41637,0.86788
2162.93422,0.86793
2162.45206,0.86806
2161.96991,0.86818
2161.48776,0.86807
2161.00561,0.86784
2160.52345,0.8677
2160.0413,0.86769
2159.55915,0.8677
2159.077,0.86771
2158.59485,0.86775
2158.11269,0.86777
2157.63054,0.86775
2157.14839,0.86773
2156.66624,0.86772
2156.18409,0.8677
2155.70193,0.86768
2155.21978,0.86773
2154.73763,0.86782
2154.25548,0.86786
2153.77333,0.86786
2153.29117,0.86788
2152.80902,0.86793
2152.32687,0.86797
2151.84472,0.86795
2151.36257,0.86793
2150.88041,0.86796
2150.39826,0.86803
2149.91611,0.86806
2149.43396,0.86806
2148.9518,0.86811
2148.46965,0.86821
2147.9875,0.86834
2147.50535,0.86843
2147.0232,0.86846
2146.54104,0.86849
2146.05889,0.86863
2145.57674,0.86881
2145.09459,0.86889
2144.61244,0.86891
2144.13028,0.86892
2143.64813,0.86894
2143.16598,0.869
2142.68383,0.86911
2142.20168,0.8692
2141.71952,0.86925
2141.23737,0.86928
2140.75522,0.86933
2140.27307,0.86948
2139.79092,0.86973
2139.30876,0.86988
2138.82661,0.86988
2138.34446,0.86991
2137.86231,0.87003
2137.38016,0.87023
2136.898,0.87062
2136.41585,0.87103
2135.9337,0.87107
2135.45155,0.87075
2134.96939,0.87049
2134.48724,0.87043
2134.00509,0.87047
2133.52294,0.87056
2133.04079,0.87066
2132.55863,0.87074
2132.07648,0.87082
2131.59433,0.87092
2131.11218,0.871
2130.63003,0.87106
2130.14787,0.87112
2129.66572,0.87118
2129.18357,0.87126
2128.70142,0.87136
2128.21927,0.87147
2127.73711,0.87153
2127.25496,0.87156
2126.77281,0.87159
2126.29066,0.87163
2125.80851,0.87169
2125.32635,0.8718
2124.8442,0.87191
2124.36205,0.872
2123.8799,0.87206
2123.39774,0.8721
2122.91559,0.87213
2122.43344,0.87216
2121.95129,0.87221
2121.46914,0.87226
2120.98698,0.87232
2120.50483,0.87241
2120.02268,0.8725
2119.54053,0.87255
2119.05838,0.87253
2118.57622,0.87253
2118.09407,0.87259
2117.61192,0.87267
2117.12977,0.87274
2116.64762,0.87283
2116.16546,0.87302
2115.68331,0.87344
2115.20116,0.87386
2114.71901,0.87388
2114.23686,0.87355
2113.7547,0.87327
2113.27255,0.87319
2112.7904,0.87318
2112.30825,0.87321
2111.82609,0.8733
2111.34394,0.87337
2110.86179,0.87337
2110.37964,0.87337
2109.89749,0.87338
2109.41533,0.8734
2108.93318,0.87344
2108.45103,0.87351
2107.96888,0.87361
2107.48673,0.87367
2107.00457,0.87365
2106.52242,0.87365
2106.04027,0.8737
2105.55812,0.87373
2105.07597,0.87371
2104.59381,0.87368
2104.11166,0.87371
2103.62951,0.87378
2103.14736,0.87383
2102.66521,0.87385
2102.18305,0.8739
2101.7009,0.87397
2101.21875,0.87401
2100.7366,0.87402
2100.25445,0.87405
2099.77229,0.87409
2099.29014,0.87417
2098.80799,0.87423
2098.32584,0.87428
2097.84368,0.87432
2097.36153,0.87434
2096.87938,0.87431
2096.39723,0.87428
2095.91508,0.8743
2095.43292,0.87436
2094.95077,0.87441
2094.46862,0.87443
2093.98647,0.87446
2093.50432,0.87448
2093.02216,0.87448
2092.54001,0.87449
2092.05786,0.87452
2091.57571,0.87462
2091.09356,0.87518
2090.6114,0.87636
2090.12925,0.87713
2089.6471,0.87656
2089.16495,0.87547
2088.6828,0.87489
2088.20064,0.87491
2087.71849,0.87516
2087.23634,0.87521
2086.75419,0.875
2086.27203,0.87481
2085.78988,0.87475
2085.30773,0.87475
2084.82558,0.87476
2084.34343,0.87479
2083.86127,0.87483
2083.37912,0.87486
2082.89697,0.87491
2082.41482,0.87499
2081.93267,0.87503
2081.45051,0.87499
2080.96836,0.87494
2080.48621,0.87494
2080.00406,0.87497
2079.52191,0.87503
2079.03975,0.87518
2078.5576,0.87527
2078.07545,0.87523
2077.5933,0.87515
2077.11115,0.87513
2076.62899,0.87515
2076.14684,0.87518
2075.66469,0.8752
2075.18254,0.87532
2074.70039,0.87558
2074.21823,0.87575
2073.73608,0.87564
2073.25393,0.87546
2072.77178,0.87538
2072.28962,0.87537
2071.80747,0.87538
2071.32532,0.87541
2070.84317,0.87544
2070.36102,0.87546
2069.87886,0.87549
2069.39671,0.87549
2068.91456,0.87549
2068.43241,0.87552
2067.95026,0.87553
2067.4681,0.87553
2066.98595,0.87577
2066.5038,0.87654
2066.02165,0.87793
2065.5395,0.88003
2065.05734,0.88166
2064.57519,0.88077
2064.09304,0.87821
2063.61089,0.87641
2063.12874,0.87577
2062.64658,0.87565
2062.16443,0.87565
2061.68228,0.87572
2061.20013,0.87608
2060.71797,0.87653
2060.23582,0.87659
2059.75367,0.87628
2059.27152,0.87603
2058.78937,0.87593
2058.30721,0.87589
2057.82506,0.87587
2057.34291,0.87588
2056.86076,0.8759
2056.37861,0.87592
2055.89645,0.87594
2055.4143,0.87596
2054.93215,0.87598
2054.45,0.87599
2053.96785,0.87601
2053.48569,0.87604
2053.00354,0.87603
2052.52139,0.87599
2052.03924,0.87602
2051.55709,0.8761
2051.07493,0.87613
2050.59278,0.87613
2050.11063,0.87618
2049.62848,0.87622
2049.14633,0.87621
2048.66417,0.87621
2048.18202,0.87626
2047.69987,0.87635
2047.21772,0.87649
2046.73556,0.87664
2046.25341,0.87664
2045.77126,0.87652
2045.28911,0.87649
2044.80696,0.87679
2044.3248,0.8773
2043.84265,0.87746
2043.3605,0.87713
2042.87835,0.87691
2042.3962,0.87775
2041.91404,0.88006
2041.43189,0.88184
2040.94974,0.88087
2040.46759,0.87856
2039.98544,0.8771
2039.50328,0.87665
2039.02113,0.87663
2038.53898,0.87673
2038.05683,0.87685
2037.57468,0.87691
2037.09252,0.87688
2036.61037,0.87677
2036.12822,0.87667
2035.64607,0.87664
2035.16391,0.87669
2034.68176,0.87679
2034.19961,0.87685
2033.71746,0.87682
2033.23531,0.87678
2032.75315,0.87679
2032.271,0.8768
2031.78885,0.87675
2031.3067,0.87673
2030.82455,0.87679
2030.34239,0.87688
2029.86024,0.8769
2029.37809,0.8769
2028.89594,0.87693
2028.41379,0.87697
2027.93163,0.87705
2027.44948,0.87729
2026.96733,0.87758
2026.48518,0.87764
2026.00303,0.87742
2025.52087,0.87719
2025.03872,0.87711
2024.55657,0.87713
2024.07442,0.87729
2023.59226,0.8777
2023.11011,0.87804
2022.62796,0.87792
2022.14581,0.87756
2021.66366,0.87731
2021.1815,0.87722
2020.69935,0.87724
2020.2172,0.87749
2019.73505,0.87824
2019.2529,0.8796
2018.77074,0.88093
2018.28859,0.88134
2017.80644,0.8825
2017.32429,0.88647
2016.84214,0.88903
2016.35998,0.88586
2015.87783,0.88091
2015.39568,0.8783
2014.91353,0.87754
2014.43138,0.87738
2013.94922,0.87736
2013.46707,0.87739
2012.98492,0.87738
2012.50277,0.87735
2012.02062,0.87734
2011.53846,0.87734
2011.05631,0.87734
2010.57416,0.8774
2010.09201,0.87762
2009.60985,0.87787
2009.1277,0.87793
2008.64555,0.87798
2008.1634,0.87827
2007.68125,0.87842
2007.19909,0.87813
2006.71694,0.87772
2006.23479,0.87752
2005.75264,0.87747
2005.27049,0.87747
2004.78833,0.87748
2004.30618,0.87747
2003.82403,0.87743
2003.34188,0.87742
2002.85973,0.87742
2002.37757,0.87746
2001.89542,0.87748
2001.41327,0.87749
2000.93112,0.87752
2000.44897,0.8776
1999.96681,0.87792
1999.48466,0.87855
1999.00251,0.87898
1998.52036,0.87872
1998.0382,0.87817
1997.55605,0.87782
1997.0739,0.87769
1996.59175,0.87768
1996.1096,0.87772
1995.62744,0.87778
1995.14529,0.87778
1994.66314,0.87784
1994.18099,0.87824
1993.69884,0.87965
1993.21668,0.88347
1992.73453,0.89173
1992.25238,0.90121
1991.77023,0.90139
1991.28808,0.89159
1990.80592,0.88273
1990.32377,0.87912
1989.84162,0.87854
1989.35947,0.88013
1988.87732,0.88357
1988.39516,0.88544
1987.91301,0.88336
1987.43086,0.88012
1986.94871,0.87839
1986.46656,0.87791
1985.9844,0.87784
1985.50225,0.87783
1985.0201,0.87783
1984.53795,0.87782
1984.05579,0.8778
1983.57364,0.8778
1983.09149,0.87782
1982.60934,0.87783
1982.12719,0.87784
1981.64503,0.87786
1981.16288,0.87789
1980.68073,0.87791
1980.19858,0.87787
1979.71643,0.87785
1979.23427,0.87788
1978.75212,0.87793
1978.26997,0.87795
1977.78782,0.87797
1977.30567,0.87802
1976.82351,0.87815
1976.34136,0.87823
1975.85921,0.87816
1975.37706,0.87802
1974.89491,0.87795
1974.41275,0.87795
1973.9306,0.87795
1973.44845,0.87796
1972.9663,0.87799
1972.48414,0.878
1972.00199,0.87799
1971.51984,0.878
1971.03769,0.87804
1970.55554,0.8781
1970.07338,0.87819
1969.59123,0.8783
1969.10908,0.87859
1968.62693,0.88058
1968.14478,0.88693
1967.66262,0.89442
1967.18047,0.8954
1966.69832,0.89113
1966.21617,0.88683
1965.73402,0.88296
1965.25186,0.88
1964.76971,0.87867
1964.28756,0.8783
1963.80541,0.87821
1963.32326,0.8782
1962.8411,0.87822
1962.35895,0.87845
1961.8768,0.87919
1961.39465,0.87997
1960.9125,0.87986
1960.43034,0.87905
1959.94819,0.87841
1959.46604,0.87818
1958.98389,0.87818
1958.50173,0.87831
1958.01958,0.87846
1957.53743,0.87857
1957.05528,0.87862
1956.57313,0.8787
1956.09097,0.87922
1955.60882,0.8806
1955.12667,0.88174
1954.64452,0.88116
1954.16237,0.87966
1953.68021,0.87871
1953.19806,0.87841
1952.71591,0.87836
1952.23376,0.87835
1951.75161,0.87836
1951.26945,0.87839
1950.7873,0.87846
1950.30515,0.87855
1949.823,0.87867
1949.34085,0.87875
1948.85869,0.8787
1948.37654,0.87865
1947.89439,0.87879
1947.41224,0.87975
1946.93008,0.88198
1946.44793,0.88433
1945.96578,0.88549
1945.48363,0.88524
1945.00148,0.8835
1944.51932,0.88144
1944.03717,0.88194
1943.55502,0.89081
1943.07287,0.91011
1942.59072,0.92255
1942.10856,0.91214
1941.62641,0.89444
1941.14426,0.88424
1940.66211,0.88052
1940.17996,0.87947
1939.6978,0.87923
1939.21565,0.87914
1938.7335,0.87909
1938.25135,0.87906
1937.7692,0.87903
1937.28704,0.87902
1936.80489,0.87899
1936.32274,0.87893
1935.84059,0.87893
1935.35843,0.87896
1934.87628,0.87899
1934.39413,0.87916
1933.91198,0.87981
1933.42983,0.88059
1932.94767,0.88063
1932.46552,0.87995
1931.98337,0.87933
1931.50122,0.87907
1931.01907,0.87898
1930.53691,0.87895
1930.05476,0.87892
1929.57261,0.87893
1929.09046,0.87895
1928.60831,0.879
1928.12615,0.87905
1927.644,0.87906
1927.16185,0.87907
1926.6797,0.87909
1926.19755,0.87915
1925.71539,0.87922
1925.23324,0.87939
1924.75109,0.88006
1924.26894,0.88393
1923.78679,0.89456
1923.30463,0.90704
1922.82248,0.91001
1922.34033,0.90214
1921.85818,0.89147
1921.37602,0.88401
1920.89387,0.88088
1920.41172,0.88021
1919.92957,0.88057
1919.44742,0.88327
1918.96526,0.89547
1918.48311,0.92034
1918.00096,0.9343
1917.51881,0.91748
1917.03666,0.89493
1916.5545,0.88391
1916.07235,0.88071
1915.5902,0.88008
1915.10805,0.88002
1914.6259,0.87998
1914.14374,0.87983
1913.66159,0.87967
1913.17944,0.87965
1912.69729,0.8797
1912.21514,0.8798
1911.73298,0.88002
1911.25083,0.88159
1910.76868,0.88728
1910.28653,0.89528
1909.80437,0.89668
1909.32222,0.89057
1908.84007,0.88679
1908.35792,0.88851
1907.87577,0.88945
1907.39361,0.88612
1906.91146,0.8822
1906.42931,0.88035
1905.94716,0.8799
1905.46501,0.88021
1904.98285,0.88114
1904.5007,0.88196
1904.01855,0.88166
1903.5364,0.8807
1903.05425,0.8801
1902.57209,0.88017
1902.08994,0.88056
1901.60779,0.8806
1901.12564,0.88026
1900.64349,0.87994
1900.16133,0.87984
1899.67918,0.87982
1899.19703,0.87984
1898.71488,0.87992
1898.23273,0.88012
1897.75057,0.88038
1897.26842,0.8805
1896.78627,0.8808
1896.30412,0.88359
1895.82196,0.89138
1895.33981,0.89865
1894.85766,0.89641
1894.37551,0.88844
1893.89336,0.88315
1893.4112,0.88137
1892.92905,0.88092
1892.4469,0.88081
1891.96475,0.88079
1891.4826,0.88113
1891.00044,0.8835
1890.51829,0.8943
1890.03614,0.91584
1889.55399,0.92792
1889.07184,0.91404
1888.58968,0.89436
1888.10753,0.88441
1887.62538,0.88141
1887.14323,0.88069
1886.66108,0.88056
1886.17892,0.88084
1885.69677,0.8819
1885.21462,0.8839
1884.73247,0.88534
1884.25031,0.88447
1883.76816,0.8823
1883.28601,0.88082
1882.80386,0.88032
1882.32171,0.88021
1881.83955,0.88021
1881.3574,0.88024
1880.87525,0.88032
1880.3931,0.88065
1879.91095,0.88136
1879.42879,0.88187
1878.94664,0.88158
1878.46449,0.88091
1877.98234,0.88053
1877.50019,0.88052
1877.01803,0.88067
1876.53588,0.88068
1876.05373,0.88053
1875.57158,0.8804
1875.08943,0.88037
1874.60727,0.88039
1874.12512,0.88043
1873.64297,0.88051
1873.16082,0.88065
1872.67867,0.88088
1872.19651,0.88143
1871.71436,0.88336
1871.23221,0.88702
1870.75006,0.89234
1870.2679,0.90703
1869.78575,0.93696
1869.3036,0.95652
1868.82145,0.94632
1868.3393,0.9351
1867.85714,0.9282
1867.37499,0.91527
1866.89284,0.90572
1866.41069,0.90165
1865.92854,0.89474
1865.44638,0.88686
1864.96423,0.88287
1864.48208,0.88192
1863.99993,0.88171
1863.51778,0.88136
1863.03562,0.88107
1862.55347,0.8815
1862.07132,0.88293
1861.58917,0.88427
1861.10702,0.88406
1860.62486,0.8829
1860.14271,0.88222
1859.66056,0.88247
1859.17841,0.88381
1858.69625,0.88518
1858.2141,0.88462
1857.73195,0.88267
1857.2498,0.88138
1856.76765,0.88106
1856.28549,0.88105
1855.80334,0.88098
1855.32119,0.88087
1854.83904,0.88085
1854.35689,0.88085
1853.87473,0.88088
1853.39258,0.88102
1852.91043,0.88135
1852.42828,0.88157
1851.94613,0.88142
1851.46397,0.88117
1850.98182,0.88109
1850.49967,0.88121
1850.01752,0.88158
1849.53537,0.88267
1849.05321,0.8857
1848.57106,0.89354
1848.08891,0.90371
1847.60676,0.90484
1847.1246,0.89593
1846.64245,0.8893
1846.1603,0.89041
1845.67815,0.89899
1845.196,0.92377
1844.71384,0.97431
1844.23169,1.0082
1843.74954,0.96982
1843.26739,0.9219
1842.78524,0.9006
1842.30308,0.89509
1841.82093,0.89126
1841.33878,0.88628
1840.85663,0.8832
1840.37448,0.88219
1839.89232,0.88201
1839.41017,0.8821
1838.92802,0.88229
1838.44587,0.88367
1837.96372,0.88889
1837.48156,0.89609
1836.99941,0.89697
1836.51726,0.89077
1836.03511,0.88511
1835.55296,0.88291
1835.0708,0.8825
1834.58865,0.88269
1834.1065,0.88399
1833.62435,0.88623
1833.14219,0.88689
1832.66004,0.88533
1832.17789,0.88425
1831.69574,0.88636
1831.21359,0.89868
1830.73143,0.9306
1830.24928,0.96847
1829.76713,0.97542
1829.28498,0.95268
1828.80283,0.92345
1828.32067,0.90015
1827.83852,0.88827
1827.35637,0.8847
1826.87422,0.88535
1826.39207,0.89424
1825.90991,0.92121
1825.42776,0.95366
1824.94561,0.94861
1824.46346,0.91559
1823.98131,0.89356
1823.49915,0.88762
1823.017,0.88832
1822.53485,0.88797
1822.0527,0.88542
1821.57054,0.88325
1821.08839,0.88223
1820.60624,0.88174
1820.12409,0.8815
1819.64194,0.88141
1819.15978,0.88141
1818.67763,0.88242
1818.19548,0.88649
1817.71333,0.89179
1817.23118,0.89184
1816.74902,0.88691
1816.26687,0.88305
1815.78472,0.88179
1815.30257,0.88156
1814.82042,0.88152
1814.33826,0.8815
1813.85611,0.88171
1813.37396,0.88344
1812.89181,0.88822
1812.40966,0.89309
1811.9275,0.89529
1811.44535,0.90309
1810.9632,0.91879
1810.48105,0.92196
1809.9989,0.90593
1809.51674,0.89078
1809.03459,0.8854
1808.55244,0.88738
1808.07029,0.89257
1807.58813,0.89383
1807.10598,0.889
1806.62383,0.8841
1806.14168,0.8827
1805.65953,0.88361
1805.17737,0.88442
1804.69522,0.88379
1804.21307,0.88283
1803.73092,0.88462
1803.24877,0.89424
1802.76661,0.90932
1802.28446,0.91731
1801.80231,0.91652
1801.32016,0.91174
1800.83801,0.90665
1800.35585,0.9153
1799.8737,0.93542
1799.39155,0.93475
1798.9094,0.91098
1798.42725,0.89233
1797.94509,0.88583
1797.46294,0.88646
1796.98079,0.89265
1796.49864,0.90332
1796.01648,0.90992
1795.53433,0.90512
1795.05218,0.89564
1794.57003,0.89051
1794.08788,0.89488
1793.60572,0.91889
1793.12357,0.96897
1792.64142,1.00156
1792.15927,0.97307
1791.67712,0.94749
1791.19496,0.94613
1790.71281,0.93605
1790.23066,0.91127
1789.74851,0.89329
1789.26636,0.88621
1788.7842,0.88434
1788.30205,0.88368
1787.8199,0.88277
1787.33775,0.88203
1786.8556,0.88188
1786.37344,0.88336
1785.89129,0.89209
1785.40914,0.91116
1784.92699,0.92275
1784.44484,0.91097
1783.96268,0.89417
1783.48053,0.88594
1782.99838,0.88391
1782.51623,0.88491
1782.03407,0.88879
1781.55192,0.90128
1781.06977,0.92313
1780.58762,0.93176
1780.10547,0.91609
1779.62331,0.90032
1779.14116,0.89431
1778.65901,0.89061
1778.17686,0.88665
1777.69471,0.8843
1777.21255,0.88421
1776.7304,0.88927
1776.24825,0.90385
1775.7661,0.91804
1775.28395,0.91422
1774.80179,0.90075
1774.31964,0.8968
1773.83749,0.91226
1773.35534,0.95565
1772.87319,1.01183
1772.39103,1.01937
1771.90888,1.00156
1771.42673,0.9907
1770.94458,0.96033
1770.46242,0.92084
1769.98027,0.89801
1769.49812,0.89415
1769.01597,0.91171
1768.53382,0.94751
1768.05166,0.95969
1767.56951,0.92899
1767.08736,0.89986
1766.60521,0.88758
1766.12306,0.88418
1765.6409,0.88358
1765.15875,0.8836
1764.6766,0.8839
1764.19445,0.88445
1763.7123,0.88585
1763.23014,0.89192
1762.74799,0.91396
1762.26584,0.95755
1761.78369,0.98251
1761.30154,0.95084
1760.81938,0.91175
1760.33723,0.89243
1759.85508,0.8865
1759.37293,0.88726
1758.89077,0.89075
1758.40862,0.89316
1757.92647,0.90003
1757.44432,0.92403
1756.96217,0.95199
1756.48001,0.94328
1755.99786,0.91178
1755.51571,0.89195
1755.03356,0.88536
1754.55141,0.88406
1754.06925,0.88461
1753.5871,0.88703
1753.10495,0.89151
1752.6228,0.90101
1752.14065,0.92883
1751.65849,0.98438
1751.17634,1.01356
1750.69419,0.97074
1750.21204,0.93227
1749.72989,0.93186
1749.24773,0.95619
1748.76558,0.97149
1748.28343,0.95893
1747.80128,0.9436
1747.31913,0.93779
1746.83697,0.92833
1746.35482,0.91529
1745.87267,0.90666
1745.39052,0.90216
1744.90836,0.90247
1744.42621,0.91051
1743.94406,0.92835
1743.46191,0.94552
1742.97976,0.93899
1742.4976,0.91415
1742.01545,0.89582
1741.5333,0.89154
1741.05115,0.90245
1740.569,0.93808
1740.08684,0.99077
1739.60469,0.99457
1739.12254,0.94584
1738.64039,0.91028
1738.15824,0.89912
1737.67608,0.89781
1737.19393,0.89542
1736.71178,0.89313
1736.22963,0.89765
1735.74748,0.91851
1735.26532,0.97191
1734.78317,1.06382
1734.30102,1.12102
1733.81887,1.09901
1733.33671,1.03806
1732.85456,0.97003
1732.37241,0.92712
1731.89026,0.90646
1731.40811,0.89945
1730.92595,0.91055
1730.4438,0.93884
1729.96165,0.95201
1729.4795,0.92884
1728.99735,0.90075
1728.51519,0.88736
1728.03304,0.88374
1727.55089,0.88323
1727.06874,0.88332
1726.58659,0.88324
1726.10443,0.88273
1725.62228,0.88224
1725.14013,0.88244
1724.65798,0.88551
1724.17583,0.895
1723.69367,0.90593
1723.21152,0.9051
1722.72937,0.89469
1722.24722,0.88783
1721.76507,0.88667
1721.28291,0.88678
1720.80076,0.88689
1720.31861,0.88981
1719.83646,0.90446
1719.3543,0.94661
1718.87215,1.01418
1718.39,1.06149
1717.90785,1.07819
1717.4257,1.06377
1716.94354,0.99976
1716.46139,0.95072
1715.97924,0.94673
1715.49709,0.97511
1715.01494,0.99202
1714.53278,0.97739
1714.05063,0.95276
1713.56848,0.92549
1713.08633,0.90384
1712.60418,0.8926
1712.12202,0.88749
1711.63987,0.88619
1711.15772,0.8916
1710.67557,0.90438
1710.19342,0.91192
1709.71126,0.90395
1709.22911,0.89199
1708.74696,0.8867
1708.26481,0.88843
1707.78265,0.89804
1707.3005,0.92158
1706.81835,0.96045
1706.3362,0.98138
1705.85405,0.95773
1705.37189,0.94022
1704.88974,0.95675
1704.40759,0.96849
1703.92544,0.94185
1703.44329,0.91324
1702.96113,0.90313
1702.47898,0.90565
1701.99683,0.92501
1701.51468,0.98286
1701.03253,1.11732
1700.55037,1.33511
1700.06822,1.31685
1699.58607,1.10439
1699.10392,0.98541
1698.62177,0.93743
1698.13961,0.92954
1697.65746,0.94013
1697.17531,0.95549
1696.69316,0.99107
1696.21101,1.0783
1695.72885,1.13889
1695.2467,1.04477
1694.76455,0.95627
1694.2824,0.91366
1693.80024,0.89707
1693.31809,0.89109
1692.83594,0.88886
1692.35379,0.88799
1691.87164,0.88769
1691.38948,0.89045
1690.90733,0.90273
1690.42518,0.92095
1689.94303,0.92504
1689.46088,0.91621
1688.97872,0.91836
1688.49657,0.92893
1688.01442,0.9249
1687.53227,0.90938
1687.05012,0.90075
1686.56796,0.90557
1686.08581,0.92828
1685.60366,0.98017
1685.12151,1.08132
1684.63936,1.19005
1684.1572,1.19188
1683.67505,1.14024
1683.1929,1.06259
1682.71075,0.97932
1682.22859,0.92633
1681.74644,0.90615
1681.26429,0.91045
1680.78214,0.9303
1680.29999,0.94453
1679.81783,0.93483
1679.33568,0.91239
1678.85353,0.89592
1678.37138,0.88964
1677.88923,0.88894
1677.40707,0.89037
1676.92492,0.89634
1676.44277,0.92002
1675.96062,0.98248
1675.47847,1.06705
1674.99631,1.04615
1674.51416,0.96195
1674.03201,0.91411
1673.54986,0.89709
1673.06771,0.89538
1672.58555,0.90649
1672.1034,0.93599
1671.62125,0.96594
1671.1391,0.95779
1670.65694,0.93727
1670.17479,0.95389
1669.69264,1.01489
1669.21049,1.05005
1668.72834,1.00698
1668.24618,0.95361
1667.76403,0.91704
1667.28188,0.89651
1666.79973,0.88835
1666.31758,0.8861
1665.83542,0.88569
1665.35327,0.886
1664.87112,0.88708
1664.38897,0.89104
1663.90682,0.90674
1663.42466,0.94666
1662.94251,0.99051
1662.46036,0.97715
1661.97821,0.93412
1661.49606,0.90864
1661.0139,0.89695
1660.53175,0.88998
1660.0496,0.88648
1659.56745,0.88538
1659.0853,0.88526
1658.60314,0.88561
1658.12099,0.88685
1657.63884,0.88943
1657.15669,0.8925
1656.67453,0.89508
1656.19238,0.899
1655.71023,0.913
1655.22808,0.95329
1654.74593,1.02783
1654.26377,1.10602
1653.78162,1.17924
1653.29947,1.30797
1652.81732,1.37697
1652.33517,1.18773
1651.85301,1.02509
1651.37086,0.94816
1650.88871,0.91402
1650.40656,0.9007
1649.92441,0.89773
1649.44225,0.90536
1648.9601,0.93267
1648.47795,0.97878
1647.9958,1.01891
1647.51365,1.02625
1647.03149,1.01571
1646.54934,1.02812
1646.06719,1.04931
1645.58504,1.00472
1645.10288,0.94048
1644.62073,0.90498
1644.13858,0.89062
1643.65643,0.88587
1643.17428,0.88583
1642.69212,0.88786
1642.20997,0.88752
1641.72782,0.88433
1641.24567,0.88304
1640.76352,0.88558
1640.28136,0.88726
1639.79921,0.88486
1639.31706,0.88261
1638.83491,0.88726
1638.35276,0.90701
1637.8706,0.93902
1637.38845,0.95278
1636.9063,0.94568
1636.42415,0.96508
1635.942,1.04636
1635.45984,1.13518
1634.97769,1.06796
1634.49554,0.95703
1634.01339,0.89323
1633.53124,0.8654
1633.04908,0.85362
1632.56693,0.84664
1632.08478,0.84048
1631.60263,0.83413
1631.12047,0.82742
1630.63832,0.82081
1630.15617,0.81499
1629.67402,0.81122
1629.19187,0.8127
1628.70971,0.82839
1628.22756,0.86093
1627.74541,0.87973
1627.26326,0.86284
1626.78111,0.84307
1626.29895,0.83857
1625.8168,0.84285
1625.33465,0.84987
1624.8525,0.86303
1624.37035,0.8954
1623.88819,0.94946
1623.40604,0.97455
1622.92389,0.94119
1622.44174,0.90171
1621.95959,0.87777
1621.47743,0.86667
1620.99528,0.86267
1620.51313,0.85999
1620.03098,0.85681
1619.54882,0.85382
1619.06667,0.85156
1618.58452,0.85158
1618.10237,0.8604
1617.62022,0.89028
1617.13806,0.94893
1616.65591,0.97326
1616.17376,0.89853
1615.69161,0.82821
1615.20946,0.78841
1614.7273,0.76749
1614.24515,0.75746
1613.763,0.75499
1613.28085,0.75877
1612.7987,0.7674
1612.31654,0.77883
1611.83439,0.79106
1611.35224,0.80291
1610.87009,0.81468
1610.38794,0.82939
1609.90578,0.84805
1609.42363,0.86061
1608.94148,0.85913
1608.45933,0.85438
1607.97718,0.85745
1607.49502,0.86612
1607.01287,0.87066
1606.53072,0.86771
1606.04857,0.86362
1605.56641,0.86246
1605.08426,0.86326
1604.60211,0.86521
1604.11996,0.86972
1603.63781,0.87661
1603.15565,0.88029
1602.6735,0.87771
1602.19135,0.87449
1601.7092,0.87526
1601.22705,0.87675
1600.74489,0.87521
1600.26274,0.87263
1599.78059,0.87148
1599.29844,0.87148
1598.81629,0.87175
1598.33413,0.87206
1597.85198,0.8725
1597.36983,0.87377
1596.88768,0.87684
1596.40553,0.87991
1595.92337,0.8802
1595.44122,0.88102
1594.95907,0.88628
1594.47692,0.88972
1593.99476,0.88528
1593.51261,0.87874
1593.03046,0.87585
1592.54831,0.87632
1592.06616,0.8781
1591.584,0.87887
1591.10185,0.87816
1590.6197,0.87834
1590.13755,0.87991
1589.6554,0.88021
1589.17324,0.87833
1588.69109,0.8764
1588.20894,0.8757
1587.72679,0.87569
1587.24464,0.87581
1586.76248,0.87588
1586.28033,0.87591
1585.79818,0.87597
1585.31603,0.87605
1584.83388,0.87617
1584.35172,0.87639
1583.86957,0.87681
1583.38742,0.87733
1582.90527,0.87777
1582.42311,0.8779
1581.94096,0.87769
1581.45881,0.87754
1580.97666,0.8777
1580.49451,0.87814
1580.01235,0.87882
1579.5302,0.87989
1579.04805,0.88181
1578.5659,0.88628
1578.08375,0.89603
1577.60159,0.91512
1577.11944,0.95299
1576.63729,1.02316
1576.15514,1.07545
1575.67299,1.01381
1575.19083,0.9433
1574.70868,0.90649
1574.22653,0.89108
1573.74438,0.88561
1573.26223,0.88385
1572.78007,0.88298
1572.29792,0.8824
1571.81577,0.88316
1571.33362,0.88816
1570.85147,0.90724
1570.36931,0.95544
1569.88716,1.02154
1569.40501,1.03132
1568.92286,0.97879
1568.4407,0.92677
1567.95855,0.89663
1567.4764,0.88489
1566.99425,0.88219
1566.5121,0.88339
1566.02994,0.89112
1565.54779,0.91317
1565.06564,0.93919
1564.58349,0.93542
1564.10134,0.9087
1563.61918,0.89081
1563.13703,0.88579
1562.65488,0.88653
1562.17273,0.89116
1561.69058,0.90452
1561.20842,0.9387
1560.72627,1.01897
1560.24412,1.17081
1559.76197,1.25052
1559.27982,1.21676
1558.79766,1.22225
1558.31551,1.25969
1557.83336,1.21098
1557.35121,1.0787
1556.86905,0.97358
1556.3869,0.9234
1555.90475,0.90912
1555.4226,0.92146
1554.94045,0.96561
1554.45829,1.0165
1553.97614,0.99269
1553.49399,0.93478
1553.01184,0.90193
1552.52969,0.89005
1552.04753,0.88685
1551.56538,0.88876
1551.08323,0.90357
1550.60108,0.93843
1550.11893,0.97103
1549.63677,0.96004
1549.15462,0.9223
1548.67247,0.89576
1548.19032,0.88574
1547.70817,0.88359
1547.22601,0.88419
1546.74386,0.88924
1546.26171,0.90828
1545.77956,0.95316
1545.29741,1.00256
1544.81525,0.99426
1544.3331,0.9613
1543.85095,0.95511
1543.3688,0.96789
1542.88664,0.9973
1542.40449,1.05645
1541.92234,1.07737
1541.44019,1.0339
1540.95804,1.03057
1540.47588,1.08954
1539.99373,1.15611
1539.51158,1.18626
1539.02943,1.16409
1538.54728,1.06595
1538.06512,0.97599
1537.58297,0.92376
1537.10082,0.90024
1536.61867,0.8933
1536.13652,0.89493
1535.65436,0.90039
1535.17221,0.9089
1534.69006,0.93515
1534.20791,0.99532
1533.72576,1.05486
1533.2436,1.03299
1532.76145,0.96892
1532.2793,0.93269
1531.79715,0.92328
1531.31499,0.91242
1530.83284,0.89571
1530.35069,0.88604
1529.86854,0.88672
1529.38639,0.90057
1528.90423,0.92506
1528.42208,0.94134
1527.93993,0.94751
1527.45778,0.9515
1526.97563,0.94073
1526.49347,0.93322
1526.01132,0.961
1525.52917,1.00208
1525.04702,0.98704
1524.56487,0.94154
1524.08271,0.9185
1523.60056,0.93047
1523.11841,0.97558
1522.63626,1.0208
1522.15411,1.03724
1521.67195,1.06292
1521.1898,1.095
1520.70765,1.08053
1520.2255,1.02985
1519.74335,0.9659
1519.26119,0.91965
1518.77904,0.90774
1518.29689,0.93411
1517.81474,0.997
1517.33258,1.05574
1516.85043,1.04833
1516.36828,0.99454
1515.88613,0.95152
1515.40398,0.93925
1514.92182,0.93408
1514.43967,0.91365
1513.95752,0.89452
1513.47537,0.89403
1512.99322,0.91824
1512.51106,0.95395
1512.02891,0.95329
1511.54676,0.92155
1511.06461,0.90654
1510.58246,0.9194
1510.1003,0.94753
1509.61815,0.96803
1509.136,0.98214
1508.65385,1.0069
1508.1717,1.03865
1507.68954,1.091
1507.20739,1.17852
1506.72524,1.20641
1506.24309,1.17184
1505.76093,1.12977
1505.27878,1.03908
1504.79663,0.95484
1504.31448,0.9108
1503.83233,0.89248
1503.35017,0.88596
1502.86802,0.88618
1502.38587,0.89289
1501.90372,0.89931
1501.42157,0.89679
1500.93941,0.89037
1500.45726,0.88869
1499.97511,0.89838
1499.49296,0.93134
1499.01081,0.97628
1498.52865,0.97224
1498.0465,0.93011
1497.56435,0.91134
1497.0822,0.93236
1496.60005,0.98604
1496.11789,1.00582
1495.63574,0.95397
1495.15359,0.90824
1494.67144,0.88779
1494.18929,0.88095
1493.70713,0.87889
1493.22498,0.87842
1492.74283,0.87901
1492.26068,0.88322
1491.77852,0.90082
1491.29637,0.94052
1490.81422,0.98605
1490.33207,1.00803
1489.84992,1.00572
1489.36776,0.9786
1488.88561,0.9384
1488.40346,0.91809
1487.92131,0.93385
1487.43916,0.95972
1486.957,0.94719
1486.47485,0.91518
1485.9927,0.89445
1485.51055,0.88315
1485.0284,0.8772
1484.54624,0.87499
1484.06409,0.87425
1483.58194,0.87383
1483.09979,0.87391
1482.61764,0.87565
1482.13548,0.88285
1481.65333,0.89538
1481.17118,0.90022
1480.68903,0.89066
1480.20687,0.87942
1479.72472,0.87458
1479.24257,0.87354
1478.76042,0.87366
1478.27827,0.87458
1477.79611,0.87813
1477.31396,0.89433
1476.83181,0.93604
1476.34966,0.97757
1475.86751,0.95791
1475.38535,0.91355
1474.9032,0.89695
1474.42105,0.9144
1473.9389,0.96118
1473.45675,1.00037
1472.97459,1.00228
1472.49244,1.0166
1472.01029,1.0309
1471.52814,0.98219
1471.04599,0.92176
1470.56383,0.88973
1470.08168,0.87811
1469.59953,0.87448
1469.11738,0.87302
1468.63522,0.87256
1468.15307,0.87286
1467.67092,0.87348
1467.18877,0.8741
1466.70662,0.87575
1466.22446,0.88385
1465.74231,0.91183
1465.26016,0.96361
1464.77801,0.9831
1464.29586,0.93776
1463.8137,0.89581
1463.33155,0.87826
1462.8494,0.87318
1462.36725,0.87178
1461.8851,0.87145
1461.40294,0.87183
1460.92079,0.87321
1460.43864,0.87929
1459.95649,0.89859
1459.47434,0.93212
1458.99218,0.96912
1458.51003,0.99861
1458.02788,1.0131
1457.54573,1.03886
1457.06358,1.10549
1456.58142,1.09713
1456.09927,1.00575
1455.61712,0.95654
1455.13497,0.93171
1454.65281,0.90659
1454.17066,0.88549
1453.68851,0.87459
1453.20636,0.873
1452.72421,0.88076
1452.24205,0.89063
1451.7599,0.88841
1451.27775,0.87702
1450.7956,0.86951
1450.31345,0.8675
1449.83129,0.86764
1449.34914,0.87115
1448.86699,0.88705
1448.38484,0.92045
1447.90269,0.93969
1447.42053,0.9156
1446.93838,0.8857
1446.45623,0.8724
1445.97408,0.86848
1445.49193,0.86729
1445.00977,0.86668
1444.52762,0.86566
1444.04547,0.86475
1443.56332,0.86444
1443.08116,0.86441
1442.59901,0.86443
1442.11686,0.86457
1441.63471,0.86488
1441.15256,0.86506
1440.6704,0.865
1440.18825,0.86504
1439.7061,0.86542
1439.22395,0.86638
1438.7418,0.86866
1438.25964,0.8765
1437.77749,0.90358
1437.29534,0.97172
1436.81319,1.05233
1436.33104,1.01402
1435.84888,0.9351
1435.36673,0.8924
1434.88458,0.87427
1434.40243,0.86879
1433.92028,0.8713
1433.43812,0.87604
1432.95597,0.87586
1432.47382,0.87202
1431.99167,0.86935
1431.50952,0.86832
1431.02736,0.87437
1430.54521,0.89653
1430.06306,0.92009
1429.58091,0.91144
1429.09875,0.88563
1428.6166,0.8717
1428.13445,0.86741
1427.6523,0.86444
1427.17015,0.86223
1426.68799,0.86147
1426.20584,0.86138
1425.72369,0.86179
1425.24154,0.86587
1424.75939,0.88134
1424.27723,0.90664
1423.79508,0.91507
1423.31293,0.89499
1422.83078,0.87305
1422.34863,0.86355
1421.86647,0.86188
1421.38432,0.86334
1420.90217,0.86996
1420.42002,0.89314
1419.93787,0.95276
1419.45571,1.02866
1418.97356,1.00313
1418.49141,0.93445
1418.00926,0.90739
1417.5271,0.90614
1417.04495,0.89701
1416.5628,0.88273
1416.08065,0.87447
1415.5985,0.86702
1415.11634,0.86018
1414.63419,0.85699
1414.15204,0.85592
1413.66989,0.85543
1413.18774,0.85567
1412.70558,0.85781
1412.22343,0.86186
1411.74128,0.86417
1411.25913,0.86203
1410.77698,0.85932
1410.29482,0.85939
1409.81267,0.85934
1409.33052,0.85716
1408.84837,0.85508
1408.36622,0.85431
1407.88406,0.85405
1407.40191,0.85402
1406.91976,0.85436
1406.43761,0.85643
1405.95546,0.86705
1405.4733,0.89117
1404.99115,0.90764
1404.509,0.89232
1404.02685,0.86869
1403.54469,0.85737
1403.06254,0.85425
1402.58039,0.8533
1402.09824,0.85296
1401.61609,0.85308
1401.13393,0.85381
1400.65178,0.8571
1400.16963,0.87153
1399.68748,0.90459
1399.20533,0.92944
1398.72317,0.91345
1398.24102,0.89123
1397.75887,0.88165
1397.27672,0.87218
1396.79457,0.86819
1396.31241,0.8804
1395.83026,0.89692
1395.34811,0.90903
1394.86596,0.92858
1394.38381,0.93334
1393.90165,0.90033
1393.4195,0.86865
1392.93735,0.85557
1392.4552,0.85222
1391.97304,0.85172
1391.49089,0.85252
1391.00874,0.85346
1390.52659,0.85308
1390.04444,0.85187
1389.56228,0.85126
1389.08013,0.85265
1388.59798,0.86163
1388.11583,0.88652
1387.63368,0.91395
1387.15152,0.90954
1386.66937,0.88563
1386.18722,0.86716
1385.70507,0.85575
1385.22292,0.85001
1384.74076,0.84818
1384.25861,0.84772
1383.77646,0.84758
1383.29431,0.84749
1382.81216,0.84745
1382.33,0.8475
1381.84785,0.84729
1381.3657,0.84675
1380.88355,0.84673
1380.40139,0.84814
1379.91924,0.85037
1379.43709,0.85099
1378.95494,0.8511
1378.47279,0.85373
1377.99063,0.85526
1377.50848,0.8517
1377.02633,0.84734
1376.54418,0.84662
1376.06203,0.85244
1375.57987,0.86654
1375.09772,0.87927
1374.61557,0.88566
1374.13342,0.8949
1373.65127,0.89445
1373.16911,0.87367
1372.68696,0.85491
1372.20481,0.84772
1371.72266,0.84518
1371.24051,0.84365
1370.75835,0.84305
1370.2762,0.84329
1369.79405,0.84528
1369.3119,0.8519
1368.82975,0.85986
1368.34759,0.85866
1367.86544,0.84953
1367.38329,0.84292
1366.90114,0.84086
1366.41898,0.84036
1365.93683,0.84018
1365.45468,0.84014
1364.97253,0.8405
1364.49038,0.84398
1364.00822,0.85944
1363.52607,0.88863
1363.04392,0.90339
1362.56177,0.88458
1362.07962,0.86418
1361.59746,0.86386
1361.11531,0.86915
1360.63316,0.86004
1360.15101,0.84564
1359.66886,0.83875
1359.1867,0.83754
1358.70455,0.83843
1358.2224,0.83959
1357.74025,0.83903
1357.2581,0.83715
1356.77594,0.83581
1356.29379,0.83555
1355.81164,0.83707
1355.32949,0.84088
1354.84733,0.8431
1354.36518,0.84036
1353.88303,0.83607
1353.40088,0.83392
1352.91873,0.83338
1352.43657,0.83317
1351.95442,0.83293
1351.47227,0.83264
1350.99012,0.83242
1350.50797,0.83275
1350.02581,0.83442
1349.54366,0.83629
1349.06151,0.83571
1348.57936,0.83317
1348.09721,0.83121
1347.61505,0.83045
1347.1329,0.83016
1346.65075,0.82993
1346.1686,0.82968
1345.68645,0.8294
1345.20429,0.82914
1344.72214,0.82897
1344.23999,0.82884
1343.75784,0.82854
1343.27569,0.82814
1342.79353,0.82788
1342.31138,0.82789
1341.82923,0.82902
1341.34708,0.83559
1340.86492,0.85047
1340.38277,0.86295
1339.90062,0.86244
1339.41847,0.85894
1338.93632,0.85881
1338.45416,0.85331
1337.97201,0.84172
1337.48986,0.83612
1337.00771,0.83963
1336.52556,0.84042
1336.0434,0.83322
1335.56125,0.82635
1335.0791,0.82376
1334.59695,0.82306
1334.1148,0.82272
1333.63264,0.8225
1333.15049,0.82229
1332.66834,0.82199
1332.18619,0.82158
1331.70404,0.82119
1331.22188,0.82092
1330.73973,0.82097
1330.25758,0.82124
1329.77543,0.82107
1329.29327,0.82027
1328.81112,0.81947
1328.32897,0.81908
1327.84682,0.81883
1327.36467,0.8185
1326.88251,0.8181
1326.40036,0.81771
1325.91821,0.81734
1325.43606,0.81701
1324.95391,0.81677
1324.47175,0.81661
1323.9896,0.8167
1323.50745,0.81681
1323.0253,0.8164
1322.54315,0.8156
1322.06099,0.81514
1321.57884,0.81555
1321.09669,0.81684
1320.61454,0.81838
1320.13239,0.81991
1319.65023,0.82305
1319.16808,0.8269
1318.68593,0.82561
1318.20378,0.81982
1317.72163,0.81751
1317.23947,0.81932
1316.75732,0.81885
1316.27517,0.81492
1315.79302,0.81212
1315.31086,0.81247
1314.82871,0.81374
1314.34656,0.81413
1313.86441,0.81445
1313.38226,0.8154
1312.9001,0.81635
1312.41795,0.81533
1311.9358,0.8116
1311.45365,0.80805
1310.9715,0.80648
1310.48934,0.80587
1310.00719,0.80546
1309.52504,0.80518
1309.04289,0.8055
1308.56074,0.80642
1308.07858,0.80652
1307.59643,0.80512
1307.11428,0.80356
1306.63213,0.80279
1306.14998,0.80245
1305.66782,0.80211
1305.18567,0.80159
1304.70352,0.801
1304.22137,0.8005
1303.73921,0.80006
1303.25706,0.79962
1302.77491,0.79917
1302.29276,0.79873
1301.81061,0.79826
1301.32845,0.79777
1300.8463,0.79728
1300.36415,0.79681
1299.882,0.79634
1299.39985,0.79582
1298.91769,0.79522
1298.43554,0.79462
1297.95339,0.79424
1297.47124,0.79431
1296.98909,0.79467
1296.50693,0.79444
1296.02478,0.79335
1295.54263,0.79222
1295.06048,0.79149
1294.57833,0.79096
1294.09617,0.79045
1293.61402,0.78994
1293.13187,0.78944
1292.64972,0.78891
1292.16756,0.78831
1291.68541,0.78781
1291.20326,0.7877
1290.72111,0.78768
1290.23896,0.78698
1289.7568,0.78591
1289.27465,0.78544
1288.7925,0.78567
1288.31035,0.78599
1287.8282,0.78589
1287.34604,0.78478
1286.86389,0.78262
1286.38174,0.78053
1285.89959,0.77922
1285.41744,0.77835
1284.93528,0.77761
1284.45313,0.7769
1283.97098,0.77605
1283.48883,0.77513
1283.00668,0.77424
1282.52452,0.77338
1282.04237,0.77253
1281.56022,0.77175
1281.07807,0.77107
1280.59592,0.77051
1280.11376,0.76981
1279.63161,0.76867
1279.14946,0.76734
1278.66731,0.76613
1278.18515,0.76496
1277.703,0.76372
1277.22085,0.76241
1276.7387,0.761
1276.25655,0.75941
1275.77439,0.75756
1275.29224,0.75528
1274.81009,0.75238
1274.32794,0.74866
1273.84579,0.74417
1273.36363,0.73958
1272.88148,0.73618
1272.39933,0.7348
1271.91718,0.73362
1271.43503,0.72992
1270.95287,0.72468
1270.47072,0.72049
1269.98857,0.71695
1269.50642,0.7128
1269.02427,0.70876
1268.54211,0.70546
1268.05996,0.70212
1267.57781,0.69854
1267.09566,0.69534
1266.6135,0.69263
1266.13135,0.69019
1265.6492,0.68839
1265.16705,0.68803
1264.6849,0.68943
1264.20274,0.6921
1263.72059,0.69521
1263.23844,0.69826
1262.75629,0.7012
1262.27414,0.70412
1261.79198,0.70718
1261.30983,0.71088
1260.82768,0.71552
1260.34553,0.71957
1259.86338,0.72152
1259.38122,0.72259
1258.89907,0.72425
1258.41692,0.72626
1257.93477,0.72808
1257.45262,0.7297
1256.97046,0.73115
1256.48831,0.73239
1256.00616,0.73338
1255.52401,0.73419
1255.04186,0.73487
1254.5597,0.73545
1254.07755,0.73589
1253.5954,0.73623
1253.11325,0.73645
1252.63109,0.73655
1252.14894,0.73657
1251.66679,0.7365
1251.18464,0.73635
1250.70249,0.73611
1250.22033,0.73584
1249.73818,0.73556
1249.25603,0.73523
1248.77388,0.73488
1248.29173,0.73449
1247.80957,0.73405
1247.32742,0.73358
1246.84527,0.73313
1246.36312,0.73264
1245.88097,0.73213
1245.39881,0.73168
1244.91666,0.73148
1244.43451,0.73137
1243.95236,0.73079
1243.47021,0.72972
1242.98805,0.72873
1242.5059,0.72801
1242.02375,0.72735
1241.5416,0.72665
1241.05944,0.72593
1240.57729,0.72521
1240.09514,0.72452
1239.61299,0.72384
1239.13084,0.72314
1238.64868,0.72234
1238.16653,0.72149
1237.68438,0.72072
1237.20223,0.71999
1236.72008,0.71929
1236.23792,0.71856
1235.75577,0.7178
1235.27362,0.71704
1234.79147,0.7163
1234.30932,0.71552
1233.82716,0.71466
1233.34501,0.71382
1232.86286,0.71305
1232.38071,0.71227
1231.89856,0.71145
1231.4164,0.71063
1230.93425,0.70982
1230.4521,0.70899
1229.96995,0.70816
1229.4878,0.70736
1229.00564,0.70655
1228.52349,0.70571
1228.04134,0.70484
1227.55919,0.70396
1227.07703,0.70311
1226.59488,0.70234
1226.11273,0.70175
1225.63058,0.70134
1225.14843,0.70074
1224.66627,0.69962
1224.18412,0.69828
1223.70197,0.69718
1223.21982,0.6963
1222.73767,0.69547
1222.25551,0.69459
1221.77336,0.69365
1221.29121,0.69272
1220.80906,0.69182
1220.32691,0.69092
1219.84475,0.68997
1219.3626,0.68908
1218.88045,0.6883
1218.3983,0.68743
1217.91615,0.68638
1217.43399,0.68532
1216.95184,0.68435
1216.46969,0.68343
1215.98754,0.68252
1215.50538,0.68158
1215.02323,0.68063
1214.54108,0.6797
1214.05893,0.67875
1213.57678,0.67783
1213.09462,0.67711
1212.61247,0.67661
1212.13032,0.67585
1211.64817,0.67459
1211.16602,0.67319
1210.68386,0.67195
1210.20171,0.67088
1209.71956,0.66986
1209.23741,0.66886
1208.75526,0.66785
1208.2731,0.66687
1207.79095,0.66589
1207.3088,0.66489
1206.82665,0.66387
1206.3445,0.66289
1205.86234,0.66189
1205.38019,0.66083
1204.89804,0.65975
1204.41589,0.6587
1203.93373,0.65768
1203.45158,0.65666
1202.96943,0.65562
1202.48728,0.6546
1202.00513,0.65359
1201.52297,0.65259
1201.04082,0.65155
1200.55867,0.65048
1200.07652,0.64941
1199.59437,0.64837
1199.11221,0.64743
1198.63006,0.6466
1198.14791,0.64566
1197.66576,0.64448
1197.18361,0.64322
1196.70145,0.64204
1196.2193,0.64092
1195.73715,0.63982
1195.255,0.63873
1194.77285,0.63767
1194.29069,0.63661
1193.80854,0.63551
1193.32639,0.63435
1192.84424,0.63319
1192.36209,0.63204
1191.87993,0.63089
1191.39778,0.62975
1190.91563,0.62861
1190.43348,0.6275
1189.95132,0.6264
1189.46917,0.62529
1188.98702,0.62414
1188.50487,0.623
1188.02272,0.62194
1187.54056,0.62105
1187.05841,0.62011
1186.57626,0.61881
1186.09411,0.61734
1185.61196,0.61604
1185.1298,0.61485
1184.64765,0.61365
1184.1655,0.61243
1183.68335,0.61123
1183.2012,0.61005
1182.71904,0.60885
1182.23689,0.60765
1181.75474,0.6064
1181.27259,0.60512
1180.79044,0.60388
1180.30828,0.60266
1179.82613,0.60141
1179.34398,0.60015
1178.86183,0.59891
1178.37967,0.59766
1177.89752,0.59636
1177.41537,0.59508
1176.93322,0.59384
1176.45107,0.59261
1175.96891,0.59132
1175.48676,0.59011
1175.00461,0.58912
1174.52246,0.58806
1174.04031,0.58661
1173.55815,0.58498
1173.076,0.58347
1172.59385,0.58207
1172.1117,0.58073
1171.62955,0.57937
1171.14739,0.57799
1170.66524,0.5766
1170.18309,0.57521
1169.70094,0.57384
1169.21879,0.57251
1168.73663,0.57116
1168.25448,0.56974
1167.77233,0.56831
1167.29018,0.56691
1166.80803,0.56551
1166.32587,0.56411
1165.84372,0.56273
1165.36157,0.56134
1164.87942,0.55992
1164.39726,0.55845
1163.91511,0.55694
1163.43296,0.55546
1162.95081,0.55401
1162.46866,0.55254
1161.9865,0.55105
1161.50435,0.54959
1161.0222,0.54812
1160.54005,0.54663
1160.0579,0.54515
1159.57574,0.5437
1159.09359,0.54225
1158.61144,0.54078
1158.12929,0.53928
1157.64714,0.53776
1157.16498,0.53623
1156.68283,0.53473
1156.20068,0.53328
1155.71853,0.53181
1155.23638,0.53034
1154.75422,0.52887
1154.27207,0.52745
1153.78992,0.52603
1153.30777,0.52459
1152.82561,0.52313
1152.34346,0.52175
1151.86131,0.52043
1151.37916,0.51904
1150.89701,0.51761
1150.41485,0.51619
1149.9327,0.51483
1149.45055,0.51347
1148.9684,0.51206
1148.48625,0.51066
1148.00409,0.50927
1147.52194,0.50786
1147.03979,0.50646
1146.55764,0.50511
1146.07549,0.50374
1145.59333,0.5023
1145.11118,0.50083
1144.62903,0.49938
1144.14688,0.49794
1143.66473,0.49652
1143.18257,0.49512
1142.70042,0.49369
1142.21827,0.49226
1141.73612,0.49085
1141.25397,0.48942
1140.77181,0.48794
1140.28966,0.48643
1139.80751,0.4849
1139.32536,0.48339
1138.8432,0.48191
1138.36105,0.48043
1137.8789,0.47895
1137.39675,0.47744
1136.9146,0.47589
1136.43244,0.47438
1135.95029,0.47287
1135.46814,0.47119
1134.98599,0.46941
1134.50384,0.46776
1134.02168,0.46619
1133.53953,0.46458
1133.05738,0.46293
1132.57523,0.46128
1132.09308,0.45965
1131.61092,0.45803
1131.12877,0.4564
1130.64662,0.45473
1130.16447,0.45304
1129.68232,0.45138
1129.20016,0.44977
1128.71801,0.44816
1128.23586,0.44647
1127.75371,0.44475
1127.27155,0.44298
1126.7894,0.4412
1126.30725,0.43944
1125.8251,0.43767
1125.34295,0.43591
1124.86079,0.43419
1124.37864,0.4325
1123.89649,0.4308
1123.41434,0.42903
1122.93219,0.4272
1122.45003,0.42535
1121.96788,0.42351
1121.48573,0.42168
1121.00358,0.41982
1120.52143,0.4179
1120.03927,0.41591
1119.55712,0.41389
1119.07497,0.41188
1118.59282,0.4099
1118.11067,0.40794
1117.62851,0.40595
1117.14636,0.40391
1116.66421,0.4018
1116.18206,0.39964
1115.6999,0.39747
1115.21775,0.39531
1114.7356,0.39316
1114.25345,0.39096
1113.7713,0.38868
1113.28914,0.3863
1112.80699,0.38389
1112.32484,0.38151
1111.84269,0.37915
1111.36054,0.37672
1110.87838,0.37419
1110.39623,0.37162
1109.91408,0.36907
1109.43193,0.36654
1108.94978,0.36398
1108.46762,0.36132
1107.98547,0.3586
1107.50332,0.3559
1107.02117,0.35321
1106.53902,0.35043
1106.05686,0.34752
1105.57471,0.34458
1105.09256,0.34171
1104.61041,0.33889
1104.12826,0.33606
1103.6461,0.33322
1103.16395,0.33033
1102.6818,0.32732
1102.19965,0.3242
1101.71749,0.3211
1101.23534,0.31809
1100.75319,0.3151
1100.27104,0.31203
1099.78889,0.3089
1099.30673,0.30578
1098.82458,0.30275
1098.34243,0.29982
1097.86028,0.29695
1097.37813,0.29408
1096.89597,0.29124
1096.41382,0.28853
1095.93167,0.28595
1095.44952,0.28347
1094.96737,0.28114
1094.48521,0.27901
1094.00306,0.27709
1093.52091,0.27535
1093.03876,0.27382
1092.55661,0.27246
1092.07445,0.27125
1091.5923,0.27021
1091.11015,0.2693
1090.628,0.26852
1090.14584,0.26789
1089.66369,0.26745
1089.18154,0.26716
1088.69939,0.26698
1088.21724,0.26683
1087.73508,0.2667
1087.25293,0.26662
1086.77078,0.26658
1086.28863,0.26662
1085.80648,0.2667
1085.32432,0.26674
1084.84217,0.26674
1084.36002,0.26674
1083.87787,0.2667
1083.39572,0.26665
1082.91356,0.26657
1082.43141,0.26639
1081.94926,0.26608
1081.46711,0.26571
1080.98496,0.26534
1080.5028,0.26494
1080.02065,0.26452
1079.5385,0.26412
1079.05635,0.2637
1078.5742,0.26312
1078.09204,0.26237
1077.60989,0.26161
1077.12774,0.26087
1076.64559,0.26012
1076.16343,0.25933
1075.68128,0.25849
1075.19913,0.25761
1074.71698,0.25666
1074.23483,0.25564
1073.75267,0.25464
1073.27052,0.25368
1072.78837,0.25271
1072.30622,0.25166
1071.82407,0.25053
1071.34191,0.2494
1070.85976,0.24829
1070.37761,0.24721
1069.89546,0.24611
1069.41331,0.24497
1068.93115,0.24381
1068.449,0.24269
1067.96685,0.2415
1067.4847,0.24017
1067.00255,0.2389
1066.52039,0.23773
1066.03824,0.23651
1065.55609,0.23524
1065.07394,0.23398
1064.59178,0.23274
1064.10963,0.23149
1063.62748,0.23019
1063.14533,0.22888
1062.66318,0.22755
1062.18102,0.22617
1061.69887,0.22478
1061.21672,0.22341
1060.73457,0.22207
1060.25242,0.22075
1059.77026,0.2194
1059.28811,0.21797
1058.80596,0.21649
1058.32381,0.21506
1057.84166,0.21368
1057.3595,0.21227
1056.87735,0.2108
1056.3952,0.20943
1055.91305,0.20812
1055.4309,0.20672
1054.94874,0.20526
1054.46659,0.20386
1053.98444,0.20251
1053.50229,0.20111
1053.02014,0.19961
1052.53798,0.19812
1052.05583,0.19667
1051.57368,0.19524
1051.09153,0.19383
1050.60937,0.1924
1050.12722,0.19096
1049.64507,0.18955
1049.16292,0.18814
1048.68077,0.18669
1048.19861,0.18517
1047.71646,0.18364
1047.23431,0.18218
1046.75216,0.18078
1046.27001,0.17933
1045.78785,0.17785
1045.3057,0.17638
1044.82355,0.17498
1044.3414,0.17356
1043.85925,0.17208
1043.37709,0.17054
1042.89494,0.16902
1042.41279,0.16756
1041.93064,0.16611
1041.44849,0.16464
1040.96633,0.16319
1040.48418,0.16178
1040.00203,0.16037
1039.51988,0.1589
1039.03772,0.15739
1038.55557,0.15593
1038.07342,0.15456
1037.59127,0.15322
1037.10912,0.15188
1036.62696,0.15055
1036.14481,0.1492
1035.66266,0.1478
1035.18051,0.14638
1034.69836,0.14498
1034.2162,0.14363
1033.73405,0.14236
1033.2519,0.14108
1032.76975,0.13976
1032.2876,0.13847
1031.80544,0.13723
1031.32329,0.13595
1030.84114,0.13463
1030.35899,0.13336
1029.87684,0.13215
1029.39468,0.13095
1028.91253,0.12974
1028.43038,0.12857
1027.94823,0.12742
1027.46607,0.12619
1026.98392,0.12495
1026.50177,0.12373
1026.01962,0.12253
1025.53747,0.12134
1025.05531,0.12013
1024.57316,0.11891
1024.09101,0.11771
1023.60886,0.11656
1023.12671,0.11543
1022.64455,0.11426
1022.1624,0.11306
1021.68025,0.11188
1021.1981,0.11072
1020.71595,0.10958
1020.23379,0.10845
1019.75164,0.10731
1019.26949,0.10618
1018.78734,0.10506
1018.30519,0.10394
1017.82303,0.10283
1017.34088,0.10176
1016.85873,0.10072
1016.37658,0.09966
1015.89443,0.09856
1015.41227,0.09747
1014.93012,0.0964
1014.44797,0.09533
1013.96582,0.09429
1013.48366,0.09326
1013.00151,0.09218
1012.51936,0.09113
1012.03721,0.09016
1011.55506,0.08916
1011.0729,0.0881
1010.59075,0.08707
1010.1086,0.0861
1009.62645,0.08515
1009.1443,0.08422
1008.66214,0.0833
1008.17999,0.08237
1007.69784,0.08143
1007.21569,0.08046
1006.73354,0.07948
1006.25138,0.07855
1005.76923,0.0776
1005.28708,0.07659
1004.80493,0.07559
1004.32278,0.07464
1003.84062,0.07377
1003.35847,0.07293
1002.87632,0.07205
1002.39417,0.07112
1001.91201,0.07018
1001.42986,0.06928
1000.94771,0.06839
1000.46556,0.06748
999.98341,0.06657
999.50125,0.06573
999.0191,0.06492
998.53695,0.06411
998.0548,0.06325
997.57265,0.06235
997.09049,0.0615
996.60834,0.06069
996.12619,0.05986
995.64404,0.059
995.16189,0.05817
994.67973,0.05737
994.19758,0.05655
993.71543,0.05575
993.23328,0.055
992.75113,0.05425
992.26897,0.05347
991.78682,0.05272
991.30467,0.052
990.82252,0.05124
990.34037,0.05042
989.85821,0.04959
989.37606,0.04884
988.89391,0.04817
988.41176,0.04749
987.9296,0.04677
987.44745,0.04602
986.9653,0.04529
986.48315,0.04461
986.001,0.04394
985.51884,0.04325
985.03669,0.04259
984.55454,0.04195
984.07239,0.0413
983.59024,0.04067
983.10808,0.04004
982.62593,0.03938
982.14378,0.03868
981.66163,0.038
981.17948,0.0374
980.69732,0.0368
980.21517,0.03619
979.73302,0.0356
979.25087,0.03501
978.76872,0.03442
978.28656,0.03384
977.80441,0.03326
977.32226,0.03268
976.84011,0.03211
976.35795,0.03153
975.8758,0.03096
975.39365,0.03044
974.9115,0.02997
974.42935,0.02945
973.94719,0.02887
973.46504,0.02832
972.98289,0.02784
972.50074,0.02737
972.01859,0.0269
971.53643,0.02641
971.05428,0.02592
970.57213,0.02538
970.08998,0.0248
969.60783,0.02423
969.12567,0.02378
968.64352,0.02341
968.16137,0.02307
967.67922,0.02269
967.19707,0.02222
966.71491,0.02172
966.23276,0.02129
965.75061,0.0209
965.26846,0.02047
964.78631,0.01999
964.30415,0.01954
963.822,0.01916
963.33985,0.01878
962.8577,0.0184
962.37554,0.018
961.89339,0.01758
961.41124,0.01719
960.92909,0.01689
960.44694,0.01661
959.96478,0.01629
959.48263,0.01592
959.00048,0.01554
958.51833,0.01519
958.03618,0.01487
957.55402,0.01456
957.07187,0.01423
956.58972,0.01392
956.10757,0.01364
955.62542,0.01338
955.14326,0.01306
954.66111,0.01271
954.17896,0.01237
953.69681,0.01205
953.21466,0.01177
952.7325,0.01149
952.25035,0.0112
951.7682,0.0109
951.28605,0.01063
950.80389,0.01038
950.32174,0.01012
949.83959,0.00985
949.35744,0.00961
948.87529,0.00942
948.39313,0.00927
947.91098,0.00909
947.42883,0.00883
946.94668,0.00853
946.46453,0.00827
945.98237,0.0081
945.50022,0.00793
945.01807,0.0077
944.53592,0.00745
944.05377,0.00726
943.57161,0.00713
943.08946,0.00698
942.60731,0.00679
942.12516,0.00657
941.64301,0.00639
941.16085,0.00627
940.6787,0.00613
940.19655,0.00597
939.7144,0.00579
939.23224,0.00555
938.75009,0.00534
938.26794,0.0052
937.78579,0.0051
937.30364,0.005
936.82148,0.00488
936.33933,0.00476
935.85718,0.00464
935.37503,0.00448
934.89288,0.0043
934.41072,0.00417
933.92857,0.00406
933.44642,0.00395
932.96427,0.00386
932.48212,0.00378
931.99996,0.00365
931.51781,0.00354
931.03566,0.00345
930.55351,0.00334
930.07136,0.00323
929.5892,0.00314
929.10705,0.00305
928.6249,0.00292
928.14275,0.00277
927.6606,0.0027
927.17844,0.00267
926.69629,0.00259
926.21414,0.00247
925.73199,0.0024
925.24983,0.00237
924.76768,0.00231
924.28553,0.00221
923.80338,0.00213
923.32123,0.00207
922.83907,0.002
922.35692,0.00192
921.87477,0.00183
921.39262,0.00174
920.91047,0.00161
920.42831,0.00149
919.94616,0.00146
919.46401,0.00149
918.98186,0.00149
918.49971,0.00145
918.01755,0.00142
917.5354,0.00137
917.05325,0.00135
916.5711,0.00132
916.08895,0.00124
915.60679,0.00116
915.12464,0.00111
914.64249,0.00111
914.16034,0.00113
913.67818,0.00115
913.19603,0.00113
912.71388,0.00105
912.23173,0.00094
911.74958,0.00085
911.26742,0.00082
910.78527,0.00083
910.30312,0.0008
909.82097,0.00075
909.33882,0.0007
908.85666,0.00066
908.37451,0.00061
907.89236,0.00055
907.41021,0.00049
906.92806,0.00049
906.4459,0.00055
905.96375,0.00058
905.4816,0.00055
904.99945,0.00048
904.5173,0.00043
904.03514,0.00045
903.55299,0.00049
903.07084,0.00051
902.58869,0.00049
902.10654,0.00045
901.62438,0.00042
901.14223,0.00036
900.66008,0.00028
900.17793,0.00023
899.69577,0.00022
899.21362,0.00026
898.73147,0.00033
898.24932,0.00038
897.76717,0.00039
897.28501,0.00041
896.80286,0.00039
896.32071,0.00031
895.83856,0.00026
895.35641,0.00028
894.87425,0.00031
894.3921,0.00033
893.90995,0.0003
893.4278,0.00018
892.94565,0.00012
892.46349,0.00015
891.98134,0.00017
891.49919,0.0002
891.01704,0.00024
890.53489,0.00019
890.05273,0.00007
889.57058,0.00001
889.08843,0.00001
888.60628,0.00004
888.12412,0.0001
887.64197,0.00015
887.15982,0.00016
886.67767,0.00014
886.19552,0.00009
885.71336,0.00001
885.23121,-0.00002
884.74906,0.00003
884.26691,0.00011
883.78476,0.00019
883.3026,0.00023
882.82045,0.00019
882.3383,0.00014
881.85615,0.00012
881.374,0.00013
880.89184,0.00018
880.40969,0.00022
879.92754,0.00023
879.44539,0.0002
878.96324,0.00017
878.48108,0.00017
877.99893,0.00021
877.51678,0.00026
877.03463,0.00022
876.55248,0.00015
876.07032,0.00013
875.58817,0.00018
875.10602,0.00021
874.62387,0.0002
874.14171,0.00023
873.65956,0.00029
873.17741,0.00031
872.69526,0.00025
872.21311,0.00016
871.73095,0.00011
871.2488,0.00008
870.76665,0.00007
870.2845,0.0001
869.80235,0.00015
869.32019,0.00018
868.83804,0.0002
868.35589,0.00022
867.87374,0.00025
867.39159,0.00028
866.90943,0.00025
866.42728,0.00017
865.94513,0.00012
865.46298,0.0001
864.98083,0.00013
864.49867,0.00022
864.01652,0.00031
863.53437,0.00032
863.05222,0.00026
862.57006,0.0002
862.08791,0.00016
861.60576,0.00022
861.12361,0.00029
860.64146,0.00026
860.1593,0.00019
859.67715,0.00017
859.195,0.00023
858.71285,0.00029
858.2307,0.00026
857.74854,0.00018
857.26639,0.00012
856.78424,0.00008
856.30209,0.00005
855.81994,0.00007
855.33778,0.00011
854.85563,0.00015
854.37348,0.00016
853.89133,0.00016
853.40918,0.0002
852.92702,0.00029
852.44487,0.00033
851.96272,0.00023
851.48057,0.00017
850.99841,0.00026
850.51626,0.00033
850.03411,0.00033
849.55196,0.0003
849.06981,0.00024
848.58765,0.00017
848.1055,0.00012
847.62335,0.00011
847.1412,0.00018
846.65905,0.00024
846.17689,0.00023
845.69474,0.00021
845.21259,0.0002
844.73044,0.00017
844.24829,0.00013
843.76613,0.00012
843.28398,0.00013
842.80183,0.00017
842.31968,0.00025
841.83753,0.00026
841.35537,0.00018
840.87322,0.00008
840.39107,0.00005
839.90892,0.00013
839.42677,0.00023
838.94461,0.00024
838.46246,0.00017
837.98031,0.00018
837.49816,0.00021
837.016,0.00017
836.53385,0.00013
836.0517,0.00014
835.56955,0.00016
835.0874,0.00013
834.60524,0.00009
834.12309,0.00016
833.64094,0.0003
833.15879,0.00033
832.67664,0.00023
832.19448,0.00016
831.71233,0.00016
831.23018,0.00017
830.74803,0.00019
830.26588,0.00023
829.78372,0.00026
829.30157,0.00023
828.81942,0.00015
828.33727,0.00007
827.85512,0.00009
827.37296,0.0002
826.89081,0.0003
826.40866,0.00035
825.92651,0.00035
825.44435,0.00031
824.9622,0.00024
824.48005,0.0002
823.9979,0.00017
823.51575,0.00014
823.03359,0.00019
822.55144,0.00024
822.06929,0.00019
821.58714,0.00009
821.10499,0.00007
820.62283,0.00012
820.14068,0.00018
819.65853,0.00024
819.17638,0.00027
818.69423,0.00025
818.21207,0.00019
817.72992,0.00018
817.24777,0.00025
816.76562,0.00028
816.28347,0.00023
815.80131,0.0002
815.31916,0.00023
814.83701,0.00021
814.35486,0.00015
813.87271,0.00016
813.39055,0.00022
812.9084,0.00024
812.42625,0.00019
811.9441,0.00013
811.46194,0.00013
810.97979,0.00021
810.49764,0.00026
810.01549,0.00026
809.53334,0.00026
809.05118,0.00023
808.56903,0.0001
808.08688,-0.00003
807.60473,0
807.12258,0.00018
806.64042,0.00033
806.15827,0.00034
805.67612,0.00022
805.19397,0.0001
804.71182,0.0001
804.22966,0.00016
803.74751,0.00022
803.26536,0.00032
802.78321,0.0004
802.30106,0.00033
801.8189,0.00018
801.33675,0.00011
800.8546,0.0002
800.37245,0.00036
799.89029,0.00042
799.40814,0.00034
798.92599,0.00021
798.44384,0.0001
797.96169,0.00004
797.47953,0.00009
796.99738,0.00021
796.51523,0.00027
796.03308,0.00025
795.55093,0.00022
795.06877,0.00018
794.58662,0.00011
794.10447,0.00008
793.62232,0.0001
793.14017,0.00012
792.65801,0.00013
792.17586,0.00016
791.69371,0.00021
791.21156,0.0002
790.72941,0.00012
790.24725,0.00006
789.7651,0.00007
789.28295,0.00015
788.8008,0.00029
788.31865,0.00038
787.83649,0.00034
787.35434,0.00024
786.87219,0.0002
786.39004,0.00019
785.90788,0.00018
785.42573,0.00021
784.94358,0.00026
784.46143,0.0003
783.97928,0.00028
783.49712,0.00023
783.01497,0.00021
782.53282,0.00023
782.05067,0.00026
781.56852,0.00021
781.08636,0.00009
780.60421,0.00004
780.12206,0.00009
779.63991,0.00013
779.15776,0.00007
778.6756,-0.00001
778.19345,-0.00002
777.7113,0
777.22915,0.00006
776.747,0.00019
776.26484,0.00031
775.78269,0.00036
775.30054,0.00031
774.81839,0.00021
774.33623,0.00013
773.85408,0.00013
773.37193,0.00023
772.88978,0.00036
772.40763,0.00037
771.92547,0.00025
771.44332,0.00011
770.96117,0.00003
770.47902,0.00007
769.99687,0.00021
769.51471,0.00027
769.03256,0.00018
768.55041,0.00013
768.06826,0.00021
767.58611,0.0003
767.10395,0.00028
766.6218,0.00019
766.13965,0.00013
765.6575,0.00012
765.17535,0.0001
764.69319,0.00007
764.21104,0.00009
763.72889,0.00014
763.24674,0.00021
762.76458,0.0003
762.28243,0.00033
761.80028,0.00025
761.31813,0.00014
760.83598,0.00012
760.35382,0.0002
759.87167,0.00028
759.38952,0.00034
758.90737,0.00033
758.42522,0.00019
757.94306,0.00002
757.46091,-0.00004
756.97876,0
756.49661,0.00006
756.01446,0.00009
755.5323,0.00012
755.05015,0.00015
754.568,0.00019
754.08585,0.00024
753.6037,0.00026
753.12154,0.00029
752.63939,0.00033
752.15724,0.00031
751.67509,0.00022
751.19294,0.00011
750.71078,0.00001
750.22863,-0.00005
749.74648,-0.00005
749.26433,0.00006
748.78217,0.00022
748.30002,0.00024
747.81787,0.00013
747.33572,0.0001
746.85357,0.00012
746.37141,0.00014
745.88926,0.00018
745.40711,0.00024
744.92496,0.00022
744.44281,0.00016
743.96065,0.00018
743.4785,0.0002
742.99635,0.0001
742.5142,0.00002
742.03205,0.00012
741.54989,0.00032
741.06774,0.00041
740.58559,0.0004
740.10344,0.00031
739.62129,0.00012
739.13913,0.00001
738.65698,0.00009
738.17483,0.00008
737.69268,-0.00008
737.21052,-0.0001
736.72837,0.00005
736.24622,0.00022
735.76407,0.00029
735.28192,0.00023
734.79976,0.00018
734.31761,0.00021
733.83546,0.00021
733.35331,0.00018
732.87116,0.00021
732.389,0.00028
731.90685,0.00029
731.4247,0.00024
730.94255,0.00021
730.4604,0.00025
729.97824,0.00027
729.49609,0.00027
729.01394,0.00022
728.53179,-0.00001
728.04964,-0.00022
727.56748,-0.00008
727.08533,0.00029
726.60318,0.00045
726.12103,0.00035
725.63888,0.00031
725.15672,0.00033
724.67457,0.00022
724.19242,0.00013
723.71027,0.0001
723.22811,0.00008
722.74596,0.00021
722.26381,0.00049
721.78166,0.00057
721.29951,0.00035
720.81735,-0.00003
720.3352,-0.00024
719.85305,0.0001
719.3709,0.00064
718.88875,0.00068
718.40659,0.00027
717.92444,-0.00012
717.44229,-0.00019
716.96014,0.00007
716.47799,0.00027
715.99583,0.00014
715.51368,0
715.03153,0.00012
714.54938,0.00018
714.06723,-0.00013
713.58507,-0.00031
713.10292,0.00014
712.62077,0.00061
712.13862,0.00055
711.65646,0.00026
711.17431,0.00005
710.69216,0.00013
710.21001,0.00041
709.72786,0.00038
709.2457,0.00008
708.76355,0.00013
708.2814,0.00051
707.79925,0.00068
707.3171,0.00044
706.83494,0.00004
706.35279,-0.00006
705.87064,0.00034
705.38849,0.00061
704.90634,0.00046
704.42418,0.00052
703.94203,0.00068
703.45988,0.00043
702.97773,0.00008
702.49558,0.00005
702.01342,0.00032
701.53127,0.00057
701.04912,0.00046
700.56697,-0.00009
700.08482,-0.00042
699.60266,-0.00003
699.12051,0.00044
698.63836,0.0004
698.15621,0.00018
697.67405,0.00014
697.1919,0.0003
696.70975,0.0004
696.2276,0.00013
695.74545,-0.00012
695.26329,0.0001
694.78114,0.00045
694.29899,0.00034
693.81684,-0.00015
693.33469,-0.00045
692.85253,-0.00031
692.37038,0.00006
691.88823,0.00023
691.40608,-0.00004
690.92393,-0.0003
690.44177,-0.0002
689.95962,0.0001
689.47747,0.00046
688.99532,0.00075
688.51317,0.00069
688.03101,0.00041
687.54886,0.00025
687.06671,0.00018
686.58456,0
686.1024,-0.00018
685.62025,-0.00005
685.1381,0.00038
684.65595,0.00067
684.1738,0.00059
683.69164,0.00034
683.20949,0.00005
682.72734,-0.00022
682.24519,-0.00025
681.76304,0.00009
681.28088,0.00049
680.79873,0.00075
680.31658,0.0007
679.83443,0.00024
679.35228,-0.00029
678.87012,-0.0003
678.38797,0.00015
677.90582,0.00035
677.42367,0.00006
676.94152,-0.00019
676.45936,-0.00013
675.97721,0.0001
675.49506,0.00044
675.01291,0.00073
674.53075,0.00068
674.0486,0.00037
673.56645,0.00011
673.0843,-0.00002
672.60215,-0.00003
672.11999,0.00024
671.63784,0.00071
671.15569,0.00096
670.67354,0.00069
670.19139,0.00012
669.70923,-0.00027
669.22708,-0.00035
668.74493,-0.00006
668.26278,0.00086
667.78063,0.00165
667.29847,0.00101
666.81632,0.00032
666.33417,0.00007
665.85202,-0.00001
665.36987,0.00008
664.88771,0.00036
664.40556,0.00048
663.92341,0.00034
663.44126,0.00015
662.95911,0.00004
662.47695,0.00001
661.9948,0.00007
661.51265,0.00031
661.0305,0.00056
660.54834,0.00056
660.06619,0.00045
659.58404,0.00038
659.10189,0.00025
658.61974,0.0001
658.13758,0.00015
657.65543,0.00034
657.17328,0.00048
656.69113,0.00043
656.20898,0.00012
655.72682,-0.00016
655.24467,-0.00017
654.76252,0.00003
654.28037,0.00024
653.79822,0.00033
653.31606,0.00023
652.83391,0.00015
652.35176,0.00019
651.86961,0.00015
651.38746,0.00006
650.9053,0.00015
650.42315,0.00025
649.941,0.00027
649.45885,0.00031
648.97669,0.00029
648.49454,0.00015
648.01239,0.00014
647.53024,0.00034
647.04809,0.00039
646.56593,0.00024
646.08378,0.00022
645.60163,0.00045
645.11948,0.00058
644.63733,0.00041
644.15517,0.00016
643.67302,0.00004
643.19087,0.00005
642.70872,0.00011
642.22657,0.00023
641.74441,0.00035
641.26226,0.00041
640.78011,0.00047
640.29796,0.00045
639.81581,0.00021
639.33365,-0.00011
638.8515,-0.0002
638.36935,-0.00001
637.8872,0.00024
637.40505,0.0004
636.92289,0.00044
636.44074,0.00039
635.95859,0.00026
635.47644,0.00006
634.99428,-0.00015
634.51213,-0.00025
634.02998,-0.00014
633.54783,0.00008
633.06568,0.00021
632.58352,0.00019
632.10137,0.00012
631.61922,0.00012
631.13707,0.00024
630.65492,0.00032
630.17276,0.00022
629.69061,0.00009
629.20846,0.00021
628.72631,0.00048
628.24416,0.00057
627.762,0.00051
627.27985,0.00047
626.7977,0.00041
626.31555,0.00033
625.8334,0.00034
625.35124,0.00045
624.86909,0.00059
624.38694,0.00064
623.90479,0.00056
623.42263,0.00042
622.94048,0.0003
622.45833,0.00021
621.97618,0.00021
621.49403,0.00033
621.01187,0.00041
620.52972,0.00039
620.04757,0.00029
619.56542,0.00019
619.08327,0.00022
618.60111,0.00042
618.11896,0.00052
617.63681,0.00032
617.15466,0.0001
616.67251,0.00011
616.19035,0.00019
615.7082,0.00021
615.22605,0.00027
614.7439,0.00037
614.26175,0.0004
613.77959,0.0004
613.29744,0.00038
612.81529,0.00025
612.33314,0.00012
611.85099,0.0001
611.36883,0.0002
610.88668,0.00039
610.40453,0.00047
609.92238,0.00039
609.44022,0.00026
608.95807,0.00016
608.47592,0.00004
607.99377,-0.00008
607.51162,-0.0001
607.02946,0.00005
606.54731,0.00025
606.06516,0.0003
605.58301,0.00019
605.10086,0.0001
604.6187,0.00018
604.13655,0.00034
603.6544,0.00037
603.17225,0.00031
602.6901,0.0003
602.20794,0.00033
601.72579,0.00032
601.24364,0.00036
600.76149,0.00042
600.27934,0.0004
599.79718,0.00039
599.31503,0.00041
598.83288,0.00043
598.35073,0.0003
597.86857,0.00006
597.38642,-0.00003
596.90427,0.00003
596.42212,0.00004
595.93997,0.00004
595.45781,0.00015
594.97566,0.00025
594.49351,0.00021
594.01136,0.00017
593.52921,0.00023
593.04705,0.0003
592.5649,0.00032
592.08275,0.00029
591.6006,0.00028
591.11845,0.00031
590.63629,0.00041
590.15414,0.0005
589.67199,0.00041
589.18984,0.00018
588.70769,0.00007
588.22553,0.00016
587.74338,0.00032
587.26123,0.00042
586.77908,0.00041
586.29692,0.00033
585.81477,0.00018
585.33262,0.00003
584.85047,0.00002
584.36832,0.00014
583.88616,0.00029
583.40401,0.00039
582.92186,0.00045
582.43971,0.00051
581.95756,0.00048
581.4754,0.00031
580.99325,0.00018
580.5111,0.0002
580.02895,0.00032
579.5468,0.00043
579.06464,0.0004
578.58249,0.00033
578.10034,0.00034
577.61819,0.00024
577.13604,0.00006
576.65388,0
576.17173,0
575.68958,-0.00003
575.20743,0.00003
574.72528,0.00021
574.24312,0.00045
573.76097,0.00058
573.27882,0.00046
572.79667,0.00023
572.31451,0.00021
571.83236,0.00032
571.35021,0.00037
570.86806,0.00033
570.38591,0.0003
569.90375,0.00035
569.4216,0.0004
568.93945,0.00043
568.4573,0.00042
567.97515,0.00035
567.49299,0.0003
567.01084,0.00037
566.52869,0.00049
566.04654,0.00052
565.56439,0.00045
565.08223,0.00036
564.60008,0.0003
564.11793,0.0003
563.63578,0.00041
563.15363,0.00064
562.67147,0.00092
562.18932,0.00101
561.70717,0.00074
561.22502,0.00033
560.74286,0.00012
560.26071,0.00008
559.77856,0.00005
559.29641,0.0001
558.81426,0.0003
558.3321,0.00041
557.84995,0.00032
557.3678,0.00027
556.88565,0.00041
556.4035,0.0005
555.92134,0.00057
555.43919,0.00074
554.95704,0.00074
554.47489,0.00048
553.99274,0.00037
553.51058,0.00042
553.02843,0.00037
552.54628,0.00021
552.06413,0.00013
551.58198,0.00024
551.09982,0.00053
550.61767,0.00081
550.13552,0.00083
549.65337,0.00057
549.17122,0.00029
548.68906,0.00017
548.20691,0.00019
547.72476,0.00028
547.24261,0.00037
546.76045,0.00054
546.2783,0.00077
545.79615,0.00079
545.314,0.00065
544.83185,0.00052
544.34969,0.00037
543.86754,0.00025
543.38539,0.0003
542.90324,0.00048
542.42109,0.00069
541.93893,0.0008
541.45678,0.00073
540.97463,0.00051
540.49248,0.00038
540.01033,0.00046
539.52817,0.00059
539.04602,0.00055
538.56387,0.0004
538.08172,0.00038
537.59957,0.00056
537.11741,0.00083
536.63526,0.00104
536.15311,0.00102
535.67096,0.00072
535.1888,0.00026
534.70665,-0.00015
534.2245,-0.00031
533.74235,-0.00012
533.2602,0.00029
532.77804,0.00056
532.29589,0.0006
531.81374,0.00055
531.33159,0.00041
530.84944,0.00024
530.36728,0.00015
529.88513,0.00017
529.40298,0.00037
528.92083,0.00059
528.43868,0.00067
527.95652,0.00066
527.47437,0.00047
526.99222,0.00016
526.51007,0.00007
526.02792,0.00032
525.54576,0.00061
525.06361,0.0007
524.58146,0.00071
524.09931,0.00068
523.61716,0.00053
523.135,0.00022
522.65285,0.00002
522.1707,0.00013
521.68855,0.00034
521.20639,0.00045
520.72424,0.00056
520.24209,0.00063
519.75994,0.00047
519.27779,0.00021
518.79563,0.00006
518.31348,0.00004
517.83133,0.00017
517.34918,0.00039
516.86703,0.00056
516.38487,0.00064
515.90272,0.00071
515.42057,0.00084
514.93842,0.00081
514.45627,0.00047
513.97411,0.00027
513.49196,0.00032
513.00981,0.00043
512.52766,0.00059
512.04551,0.00067
511.56335,0.00065
511.0812,0.00068
510.59905,0.00075
510.1169,0.00081
509.63474,0.00076
509.15259,0.00057
508.67044,0.00042
508.18829,0.00046
507.70614,0.00065
507.22398,0.00079
506.74183,0.0008
506.25968,0.00065
505.77753,0.00039
505.29538,0.00017
504.81322,0.00002
504.33107,-0.00001
503.84892,0.00022
503.36677,0.0007
502.88462,0.00116
502.40246,0.00143
501.92031,0.00135
501.43816,0.00098
500.95601,0.00046
500.47386,-0.00005
499.9917,-0.00025
499.50955,0.00005
499.0274,0.00061
498.54525,0.00097
498.0631,0.00092
497.58094,0.00057
497.09879,0.00013
496.61664,-0.00015
496.13449,-0.00002
495.65233,0.00043
495.17018,0.00094
494.68803,0.00117
494.20588,0.00087
493.72373,0.00018
493.24157,-0.00052
492.75942,-0.00077
492.27727,-0.00042
491.79512,0.00041
491.31297,0.00111
490.83081,0.00119
490.34866,0.00083
489.86651,0.00046
489.38436,0.00017
488.90221,0.00014
488.42005,0.00047
487.9379,0.00078
487.45575,0.00083
486.9736,0.00072
486.49145,0.00053
486.00929,0.00038
485.52714,0.00039
485.04499,0.00048
484.56284,0.00046
484.08068,0.00034
483.59853,0.00018
483.11638,0.00001
482.63423,0.00005
482.15208,0.00028
481.66992,0.00057
481.18777,0.00091
480.70562,0.00108
480.22347,0.00094
479.74132,0.0007
479.25916,0.00044
478.77701,0.00038
478.29486,0.00071
477.81271,0.00089
477.33056,0.00054
476.8484,0.00014
476.36625,0.00008
475.8841,0.00031
475.40195,0.00073
474.9198,0.00113
474.43764,0.00134
473.95549,0.00129
473.47334,0.00113
472.99119,0.00114
472.50903,0.00126
472.02688,0.00137
471.54473,0.00114
471.06258,0.00041
470.58043,-0.00021
470.09827,-0.00015
469.61612,0.00017
469.13397,0.00034
468.65182,0.00065
468.16967,0.00084
467.68751,0.00033
467.20536,-0.00045
466.72321,-0.00068
466.24106,-0.00017
465.75891,0.00066
465.27675,0.00128
464.7946,0.00142
464.31245,0.00105
463.8303,0.0003
463.34815,-0.00035
462.86599,-0.00058
462.38384,-0.00048
461.90169,-0.00011
461.41954,0.00063
460.93739,0.00141
460.45523,0.00176
459.97308,0.00169
459.49093,0.00136
459.00878,0.00108
458.52662,0.00111
458.04447,0.0012
457.56232,0.00095
457.08017,0.00068
456.59802,0.00065
456.11586,0.00065
455.63371,0.00042
455.15156,0.00012
454.66941,0.00021
454.18726,0.0006
453.7051,0.00101
453.22295,0.00134
452.7408,0.00127
452.25865,0.00079
451.7765,0.00053
451.29434,0.00084
450.81219,0.00146
450.33004,0.00175
449.84789,0.00137
449.36574,0.00075
448.88358,0.00033
448.40143,0.00014
447.91928,0.00024
447.43713,0.00056
446.95497,0.00105
446.47282,0.00184
445.99067,0.0025
445.50852,0.00218
445.02637,0.00111
444.54421,0.00031
444.06206,0.00014
443.57991,0.00055
443.09776,0.0013
442.61561,0.00191
442.13345,0.00195
441.6513,0.0015
441.16915,0.00097
440.687,0.00036
440.20485,-0.00018
439.72269,-0.00029
439.24054,0.00018
438.75839,0.00115
438.27624,0.00204
437.79409,0.00236
437.31193,0.00195
436.82978,0.00072
436.34763,-0.00079
435.86548,-0.00171
435.38333,-0.00173
434.90117,-0.00057
434.41902,0.00129
433.93687,0.00238
433.45472,0.00187
432.97256,0.00048
432.49041,-0.00052
432.00826,-0.00085
431.52611,-0.00042
431.04396,0.00129
430.5618,0.00338
430.07965,0.004
429.5975,0.00297
429.11535,0.00142
428.6332,-0.00013
428.15104,-0.00117
427.66889,-0.00062
427.18674,0.00075
426.70459,0.00126
426.22244,0.00094
425.74028,-0.00004
425.25813,-0.00191
424.77598,-0.00283
424.29383,-0.00133
423.81168,0.00126
423.32952,0.00327
422.84737,0.00419
422.36522,0.00403
421.88307,0.00266
421.40091,0.0005
420.91876,-0.0013
420.43661,-0.00226
419.95446,-0.00242
419.47231,-0.00162
418.99015,-0.00004
418.508,0.00114
418.02585,0.00079
417.5437,-0.00001
417.06155,-0.00063
416.57939,-0.00127
416.09724,-0.00144
415.61509,-0.00059
415.13294,0.00092
414.65079,0.00254
414.16863,0.00394
413.68648,0.00412
413.20433,0.00248
412.72218,0.0001
412.24003,-0.00169
411.75787,-0.0023
411.27572,-0.00166
410.79357,0.00005
410.31142,0.00199
409.82927,0.00282
409.34711,0.00179
408.86496,-0.00041
408.38281,-0.00229
407.90066,-0.00252
407.4185,-0.00058
406.93635,0.00233
406.4542,0.00424
405.97205,0.00433
405.4899,0.00289
405.00774,0.00103
404.52559,-0.00039
404.04344,-0.00153
403.56129,-0.00179
403.07914,-0.00025
402.59698,0.00168
402.11483,0.00222
401.63268,0.00185
401.15053,0.00154
400.66838,0.00111
400.18622,0.00053
399.70407,0.00056
