Wavelength (nm),Absorbance (AU)
190,-0.797539711
191,-0.266506195
192,0.009917736
193,0.334931374
194,0.494159698
195,0.095777512
196,-0.030294895
197,0.037933826
198,-0.255717754
199,-0.18282938
200,0.020256519
201,0.212968826
202,0.091992855
203,0.068006039
204,0.24532795
205,0.638114929
206,-0.350610733
207,-0.29348278
208,-0.711949348
209,0.355377197
210,0.397939682
211,0.482922077
212,0.848248005
213,0.513264179
214,0.455530643
215,0.651294231
216,-0.670250893
217,0.704236984
218,0.41242075
219,0.413908005
220,-0.046934605
221,0.165251255
222,0.317018986
223,-0.353076458
224,-0.508012295
225,-0.276742458
226,-0.729248047
227,0.071082115
228,-0.036791325
229,0.223107815
230,0.511022091
231,0.079645157
232,-0.032444477
233,-0.527543545
234,-0.454529285
235,-0.385751247
236,-0.198344707
237,-0.026457787
238,0.570126057
239,0.500229836
240,0.23762989
241,0.044313431
242,0.041499615
243,-0.745604992
244,-0.432760239
245,-0.192974091
246,-0.063733101
247,-0.103444099
248,-0.017620564
249,0.065319061
250,-0.42410183
251,-0.605594158
252,-0.200416088
253,-0.081997871
254,0.302696705
255,0.100658894
256,0.351682663
257,0.090644836
258,-0.150588512
259,-0.091291428
260,-0.112616062
261,-0.152701378
262,0.008233547
263,-0.03360033
264,0.054199696
265,0.058253288
266,-0.041495323
267,0.201901913
268,0.088875294
269,0.076809883
270,-0.051590919
271,-0.077271938
272,0.024032116
273,0.071372032
274,0.154470921
275,0.022079468
276,0.099050045
277,0.031661987
278,0.0066576
279,-0.10007906
280,0.092831612
281,0.046530724
282,0.073383808
283,0.005259037
284,-0.019057274
285,0.018483162
286,-0.006076336
287,0.002907753
288,-0.000587463
289,0.002560616
290,-0.000211716
291,0.001328945
292,0.001826763
293,-0.000121117
294,-0.000117779
295,0.000708103
296,0.000395298
297,0.00047636
298,0.000583172
299,0.000477314
300,0.000471592
301,0.000597954
302,0.000353813
303,0.000642776
304,0.000434875
305,0.000181675
306,0.000284672
307,0.000226974
308,0.000257969
309,0.000360489
310,0.000202179
311,0.000102043
312,0.000211716
313,0.000143051
314,0.000104427
315,-3.62396E-05
316,0.000123978
317,0.000291824
318,0.000284195
319,0.000117302
320,0.000214577
321,0.000245094
322,0.000123978
323,0.000256062
324,0.000254154
325,0.00035429
326,0.000309467
327,0.000400543
328,0.000351429
329,0.000193596
330,0.000116348
331,0.000174522
332,0.00024271
333,0.000185013
334,0.000210285
335,0.000274181
336,0.000400066
337,0.00032711
338,0.000432014
339,0.000451565
340,0.000375271
341,0.000361443
342,0.000519276
343,0.000500679
344,0.000395298
345,0.000457287
346,0.000367165
347,0.000318527
348,0.000304699
349,0.000274658
350,0.000380039
351,0.000444889
352,0.000478745
353,0.000420094
354,0.000425816
355,0.000358582
356,0.00039196
357,0.000414371
358,0.000380993
359,0.000412941
360,0.000460148
361,0.000430584
362,0.000564098
363,0.000414371
364,0.000540733
365,0.000536442
366,0.00048542
367,0.000403404
368,0.000400066
369,0.000627995
370,0.000329971
371,0.000352859
372,0.000350475
373,0.000397205
374,0.000478268
375,0.0002985
376,0.000545502
377,0.000207424
378,0.000223637
379,0.000463009
380,0.000653267
381,0.000263691
382,0.00042963
383,0.000480652
384,0.000327587
385,0.000485897
386,0.000430584
387,0.000597954
388,0.000403404
389,0.000582695
390,0.000451088
391,0.000479698
392,0.000366211
393,0.000275612
394,0.000254631
395,0.000545502
396,0.00062561
397,0.000523567
398,0.00058651
399,0.000623703
400,0.000576496
401,0.000348091
402,0.000528336
403,0.000276566
404,0.00051403
405,0.000469685
406,0.000471592
407,0.00032568
408,0.000439167
409,0.000408649
410,0.000315666
411,0.000289917
412,0.000399113
413,0.000511169
414,0.000627995
415,0.000552654
416,0.000434399
417,0.000561237
418,0.000472069
419,0.000386715
420,0.000365257
421,0.000433445
422,0.000383854
423,0.000469208
424,0.000524044
425,0.000483513
426,0.000439644
427,0.000407696
428,0.000380039
429,0.00035429
430,0.000393391
431,0.000481606
432,0.000567436
433,0.000452518
434,0.000357628
435,0.000477314
436,0.000546455
437,0.000466824
438,0.000631809
439,0.000479698
440,0.000547886
441,0.000423431
442,0.000352859
443,0.000418663
444,0.000365734
445,0.000378609
446,0.000513077
447,0.000423431
448,0.000423908
449,0.00034523
450,0.0003829
451,0.000492573
452,0.000370026
453,0.000349522
454,0.000190258
455,0.000382423
456,0.000412941
457,0.000395298
458,0.000330925
459,0.000566483
460,0.000359535
461,0.000348568
462,0.000331879
463,0.000383377
464,0.000497341
465,0.000449657
466,0.000389099
467,0.000594139
468,0.000384331
469,0.00036478
470,0.000163555
471,0.000470638
472,0.000367165
473,0.000300884
474,0.000401497
475,0.000296116
476,0.000470161
477,0.000503063
478,0.000267982
479,0.000353813
480,0.000384331
481,0.000432491
482,0.00047493
483,0.000256062
484,0.000466824
485,0.000525951
486,0.000332832
487,0.00028944
488,0.000423908
489,0.000417709
490,0.000306129
491,0.0004282
492,0.000355721
493,0.000308514
494,0.000452518
495,0.000365734
496,0.000367641
497,0.000412464
498,0.000495434
499,0.000453472
500,0.000492096
501,0.000471115
502,0.000341892
503,0.000292778
504,0.000366211
505,0.000396729
506,0.000574589
507,0.000480175
508,0.000556946
509,0.000320911
510,0.000434875
511,0.000366211
512,0.000312805
513,0.000378609
514,0.000456333
515,0.000295639
516,0.000285625
517,0.000439644
518,0.000404835
519,0.000442028
520,0.00036335
521,0.000268936
522,0.000411987
523,0.000317574
524,0.000449181
525,0.000518322
526,0.000414371
527,0.000310421
528,0.000397682
529,0.000341415
530,0.000389099
531,0.000301838
532,0.000296593
533,0.000531673
534,0.000533581
535,0.000374317
536,0.000249386
537,0.00044632
538,0.000293732
539,0.000377655
540,0.000389576
541,0.000369549
542,0.000362873
543,0.000401497
544,0.000253677
545,0.000322342
546,0.000466824
547,0.000378609
548,0.00039053
549,0.000315189
550,0.00031662
551,0.000363827
552,0.000385761
553,0.000402927
554,0.000452042
555,0.000342846
556,0.000225067
557,0.000359058
558,0.000478268
559,0.000425339
560,0.000452995
561,0.000263214
562,0.000255585
563,0.000387192
564,0.000344753
565,0.000341892
566,0.000299931
567,0.000370502
568,0.000413418
569,0.000349045
570,0.000331402
571,0.000335217
572,0.00025177
573,0.0003438
574,0.000290871
575,0.000330448
576,0.000405312
577,0.000369072
578,0.000366211
579,0.000420094
580,0.000260353
581,0.000430584
582,0.000380039
583,0.000292301
584,0.000425816
585,0.000377655
586,0.000348568
587,0.0003438
588,0.000344753
589,0.000353813
590,0.000358582
591,0.000348091
592,0.000406265
593,0.000308037
594,0.00035429
595,0.000348568
596,0.000357151
597,0.000306606
598,0.000357151
599,0.000368595
600,0.000370979
601,0.000339031
602,0.000398159
603,0.000315189
604,0.000356197
605,0.00037384
606,0.000345707
607,0.00034523
608,0.000302792
609,0.000362873
610,0.000421524
611,0.000317097
612,0.000326633
613,0.00035429
614,0.000401497
615,0.000334263
616,0.000300407
617,0.000438213
618,0.00035429
619,0.00036478
620,0.000321865
621,0.000319958
622,0.000257492
623,0.000371456
624,0.000491619
625,0.000385761
626,0.000349522
627,0.000358582
628,0.000386238
629,0.000387669
630,0.000350475
631,0.000328541
632,0.000390053
633,0.000281334
634,0.000315189
635,0.000440121
636,0.000323772
637,0.000303268
638,0.000321865
639,0.000346661
640,0.000409603
641,0.000326633
642,0.000349045
643,0.00026226
644,0.000161171
645,0.00028038
646,0.000387192
647,0.000405312
648,0.000415325
649,0.0003829
650,0.000357628
651,0.000296593
652,0.000271797
653,0.000386715
654,0.000380993
655,0.000432014
656,0.000379086
657,0.000353813
658,0.000355721
659,0.000347614
660,0.000261307
661,0.000360012
662,0.000290871
663,0.000380993
664,0.00039959
665,0.000341415
666,0.000293255
667,0.000304699
668,0.000247955
669,0.000288963
670,0.000257969
671,0.000310421
672,0.000259876
673,0.000369549
674,0.000352859
675,0.000292301
676,0.000339031
677,0.00034523
678,0.000379562
679,0.000391483
680,0.000270367
681,0.000304699
682,0.000342369
683,0.000294685
684,0.000353336
685,0.000327587
686,0.000236511
687,0.000402451
688,0.000312328
689,0.000281334
690,0.000319958
691,0.000321865
692,0.000348091
693,0.000338078
694,0.000341415
695,0.000332355
696,0.000304699
697,0.000342369
698,0.000331879
699,0.00030756
700,0.000338554
701,0.000338554
702,0.00032711
703,0.000308514
704,0.000352383
705,0.000370026
706,0.000311375
707,0.000388622
708,0.000293732
709,0.000395298
710,0.000370502
711,0.000301838
712,0.000340462
713,0.000371456
714,0.000344276
715,0.000399113
716,0.000334263
717,0.000325203
718,0.000365734
719,0.000342846
720,0.000306129
721,0.000275135
722,0.000288963
723,0.000393391
724,0.000315666
725,0.00028801
726,0.000283718
727,0.000333309
728,0.000295639
729,0.000329494
730,0.000370502
731,0.000363827
732,0.000400066
733,0.000278473
734,0.000358105
735,0.000205517
736,0.000329494
737,0.000253677
738,0.000358105
739,0.00033617
740,0.000437737
741,0.000408173
742,0.000231266
743,0.000295639
744,0.000270367
745,0.000311375
746,0.000314236
747,0.000388622
748,0.000373363
749,0.000336647
750,0.000380516
751,0.000329494
752,0.000295639
753,0.000413418
754,0.000433922
755,0.000370026
756,0.000346184
757,0.000280857
758,0.000332832
759,0.000340462
760,0.000359058
761,0.00026989
762,0.000313759
763,0.000294209
764,0.000303745
765,0.000351429
766,0.000315189
767,0.000257492
768,0.000230789
769,0.000245094
770,0.000364304
771,0.000325203
772,0.000292778
773,0.000355721
774,0.000261307
775,0.000324249
776,0.000309467
777,0.00027132
778,0.000282288
779,0.00033617
780,0.000306606
781,0.000329018
782,0.000382423
783,0.000304222
784,0.000191212
785,0.000270844
786,0.000272274
787,0.000368118
788,0.000308514
789,0.000214577
790,0.000274658
791,0.000268936
792,0.000316143
793,0.000270367
794,0.000285149
795,0.000323772
796,0.000381947
797,0.000321388
798,0.000309467
799,0.000343323
800,0.000246525
801,0.000236511
802,0.000340462
803,0.000295639
804,0.000265121
805,0.00033474
806,0.000383854
807,0.000317574
808,0.000319004
809,0.000242233
810,0.000314713
811,0.000374317
812,0.000360966
813,0.000243187
814,0.000257492
815,0.000393391
816,0.000293732
817,0.000197411
818,0.000327587
819,0.000275612
820,0.000368595
821,0.000301838
822,0.000298023
823,0.000306129
824,0.000277042
825,0.000278473
826,0.000350475
827,0.000351906
828,0.000295639
829,0.00033474
830,0.000236988
831,0.000296593
832,0.000285625
833,0.000355721
834,0.000314236
835,0.000247955
836,0.000290871
837,0.000387192
838,0.000358105
839,0.00033617
840,0.000287056
841,0.000374317
842,0.00029707
843,0.000300884
844,0.000345707
845,0.00036335
846,0.000370979
847,0.000228405
848,0.00032711
849,0.000263691
850,0.000391483
851,0.000362873
852,0.000389099
853,0.000338078
854,0.00041151
855,0.00031662
856,0.000333786
857,0.000325203
858,0.000305176
859,0.000310898
860,0.000329494
861,0.000341415
862,0.000312328
863,0.000269413
864,0.000298023
865,0.000294209
866,0.000422955
867,0.000323772
868,0.000299931
869,0.000360966
870,0.00024128
871,0.000210762
872,0.000299454
873,0.000284195
874,0.00031662
875,0.00030756
876,0.000426769
877,0.000347137
878,0.000360012
879,0.00033474
880,0.000236988
881,0.000319958
882,0.000283718
883,0.000351429
884,0.000296593
885,0.000348091
886,0.000321865
887,0.000326157
888,0.000283718
889,0.000218391
890,0.000310421
891,0.000317574
892,0.000384331
893,0.000325203
894,0.000229836
895,0.000324726
896,0.000300884
897,0.000363827
898,0.000275612
899,0.000316143
900,0.000307083
901,0.000252247
902,0.000327587
903,0.000255108
904,0.000279903
905,0.000247955
906,0.000350475
907,0.00032568
908,0.000315666
909,0.000265121
910,0.000404358
911,0.000248432
912,0.000296116
913,0.000301361
914,0.000422955
915,0.000354767
916,0.000372887
917,0.000325203
918,0.000210762
919,0.000443459
920,0.000323772
921,0.00026083
922,0.000406265
923,0.000318527
924,0.000330925
925,0.000302315
926,0.000398636
927,0.000376701
928,0.000269413
929,0.000357628
930,0.000388622
931,0.000430584
932,0.000446796
933,0.000398636
934,0.0003829
935,0.000437737
936,0.000526428
937,0.000462532
938,0.000484467
939,0.000492573
940,0.000423908
941,0.000439644
942,0.000421524
943,0.000452518
944,0.00048399
945,0.000623226
946,0.000436306
947,0.00047493
948,0.000366688
949,0.000547886
950,0.000415325
951,0.000543118
952,0.000701904
953,0.000706673
954,0.000598907
955,0.000629425
956,0.00059557
957,0.000724316
958,0.000724792
959,0.000867367
960,0.000853062
961,0.000963688
962,0.000837326
963,0.000812531
964,0.000677586
965,0.000569344
966,0.000689983
967,0.000788689
968,0.000728607
969,0.00101614
970,0.000631332
971,0.000810623
972,0.000427723
973,0.000739574
974,0.000716686
975,0.000875473
976,0.000632763
977,0.000777245
978,0.000143528
979,0.000586033
980,0.000392437
981,0.000607967
982,0.000489712
983,0.000708103
984,0.000395298
985,6.58035E-05
986,7.43866E-05
987,0.000220299
988,1.57356E-05
989,0.000751019
990,0.000543118
991,0.000795841
992,0.000627518
993,0.000183582
994,0.000292301
995,2.95639E-05
996,0.000812531
997,9.77516E-05
998,0.000396252
999,0.000475407
1000,0.00027132
1001,0.000402451
1002,0.000288486
1003,0.000368595
1004,0.000734806
1005,-1.4782E-05
1006,0.000419617
1007,-0.000387669
1008,-0.000101089
1009,9.34601E-05
1010,0.000655174
1011,0.000197887
1012,0.000260353
1013,0.000794411
1014,-1.00136E-05
1015,0.000231266
1016,-0.000114441
1017,-0.000510693
1018,0.000172138
1019,-2.81334E-05
1020,0.000635624
1021,-0.000487328
1022,0.00049305
1023,-0.000229836
1024,-0.000145912
1025,0.000362396
1026,0.000339031
1027,7.34329E-05
1028,0.000620365
1029,9.9659E-05
1030,-0.000350475
1031,0.00044775
1032,0.000198841
1033,-0.000537872
1034,0.000336647
1035,0.000686646
1036,8.2016E-05
1037,-0.000180721
1038,-0.000496864
1039,3.24249E-05
1040,0.000274658
1041,0.000440121
1042,0.000252247
1043,0.000231266
1044,0.000480652
1045,-7.82013E-05
1046,-0.000637054
1047,0.000184536
1048,0.000638962
1049,0.000552177
1050,0.001319885
1051,2.14577E-05
1052,-0.000584126
1053,-0.000948429
1054,2.00272E-05
1055,0.000201225
1056,-0.0001297
1057,0.000742435
1058,0.001344204
1059,-0.00055027
1060,1.90735E-06
1061,-0.001102448
1062,-0.001157284
1063,-0.00044632
1064,0.000197887
1065,-0.000135422
1066,0.000846863
1067,0.000837803
1068,-0.001004219
1069,-0.000505924
1070,-0.001348019
1071,0.00080204
1072,0.00343132
1073,0.002282143
1074,-0.000427723
1075,-0.00177002
1076,-0.003194809
1077,-0.000394344
1078,-0.00060463
1079,0.001613617
1080,-0.000547886
1081,-0.000123978
1082,-0.001353264
1083,-0.001081944
1084,0.000367165
1085,0.002028465
1086,0.001527309
1087,0.00291729
1088,-0.001533985
1089,-0.003456116
1090,-0.002541065
1091,-0.002780437
1092,-6.58035E-05
1093,0.003995895
1094,0.004587173
1095,0.00273037
1096,-0.001331806
1097,-0.002863407
1098,-0.002450466
1099,0.002943993
1100,-0.001618862